Theta [deg.]  Phi   [deg.]  Abs(Gain)[dBi   ]   Abs(Theta)[dBi   ]  Phase(Theta)[deg.]  Abs(Phi  )[dBi   ]  Phase(Phi  )[deg.]  Ax.Ratio[dB    ]    
------------------------------------------------------------------------------------------------------------------------------------------------------
   0.000          90.000            2.857e+00           2.857e+00             152.324          -1.271e+02              42.600           4.000e+01     
   1.000          90.000            2.865e+00           2.865e+00             152.361          -1.273e+02              41.765           4.000e+01     
   2.000          90.000            2.869e+00           2.869e+00             152.398          -1.276e+02              40.901           4.000e+01     
   3.000          90.000            2.872e+00           2.872e+00             152.437          -1.278e+02              40.007           4.000e+01     
   4.000          90.000            2.871e+00           2.871e+00             152.477          -1.281e+02              39.080           4.000e+01     
   5.000          90.000            2.867e+00           2.867e+00             152.517          -1.284e+02              38.116           4.000e+01     
   6.000          90.000            2.861e+00           2.861e+00             152.559          -1.287e+02              37.112           4.000e+01     
   7.000          90.000            2.852e+00           2.852e+00             152.602          -1.290e+02              36.062           4.000e+01     
   8.000          90.000            2.840e+00           2.840e+00             152.647          -1.293e+02              34.964           4.000e+01     
   9.000          90.000            2.826e+00           2.826e+00             152.692          -1.296e+02              33.811           4.000e+01     
  10.000          90.000            2.809e+00           2.809e+00             152.739          -1.299e+02              32.599           4.000e+01     
  11.000          90.000            2.788e+00           2.788e+00             152.787          -1.302e+02              31.320           4.000e+01     
  12.000          90.000            2.766e+00           2.766e+00             152.836          -1.306e+02              29.970           4.000e+01     
  13.000          90.000            2.740e+00           2.740e+00             152.886          -1.309e+02              28.541           4.000e+01     
  14.000          90.000            2.712e+00           2.712e+00             152.938          -1.313e+02              27.026           4.000e+01     
  15.000          90.000            2.680e+00           2.680e+00             152.991          -1.316e+02              25.418           4.000e+01     
  16.000          90.000            2.646e+00           2.646e+00             153.045          -1.320e+02              23.710           4.000e+01     
  17.000          90.000            2.610e+00           2.610e+00             153.101          -1.323e+02              21.893           4.000e+01     
  18.000          90.000            2.570e+00           2.570e+00             153.158          -1.327e+02              19.961           4.000e+01     
  19.000          90.000            2.528e+00           2.528e+00             153.216          -1.330e+02              17.907           4.000e+01     
  20.000          90.000            2.483e+00           2.483e+00             153.275          -1.334e+02              15.724           4.000e+01     
  21.000          90.000            2.435e+00           2.435e+00             153.336          -1.337e+02              13.408           4.000e+01     
  22.000          90.000            2.385e+00           2.385e+00             153.399          -1.341e+02              10.957           4.000e+01     
  23.000          90.000            2.332e+00           2.332e+00             153.463          -1.344e+02               8.370           4.000e+01     
  24.000          90.000            2.276e+00           2.276e+00             153.528          -1.347e+02               5.652           4.000e+01     
  25.000          90.000            2.217e+00           2.217e+00             153.595          -1.350e+02               2.810           4.000e+01     
  26.000          90.000            2.156e+00           2.156e+00             153.663          -1.352e+02             359.855           4.000e+01     
  27.000          90.000            2.092e+00           2.092e+00             153.733          -1.355e+02             356.805           4.000e+01     
  28.000          90.000            2.025e+00           2.025e+00             153.804          -1.357e+02             353.682           4.000e+01     
  29.000          90.000            1.955e+00           1.955e+00             153.877          -1.359e+02             350.512           4.000e+01     
  30.000          90.000            1.883e+00           1.883e+00             153.951          -1.360e+02             347.325           4.000e+01     
  31.000          90.000            1.809e+00           1.809e+00             154.027          -1.361e+02             344.153           4.000e+01     
  32.000          90.000            1.731e+00           1.731e+00             154.105          -1.362e+02             341.030           4.000e+01     
  33.000          90.000            1.651e+00           1.651e+00             154.184          -1.362e+02             337.987           4.000e+01     
  34.000          90.000            1.568e+00           1.568e+00             154.266          -1.362e+02             335.054           4.000e+01     
  35.000          90.000            1.483e+00           1.483e+00             154.348          -1.362e+02             332.258           4.000e+01     
  36.000          90.000            1.395e+00           1.395e+00             154.433          -1.361e+02             329.619           4.000e+01     
  37.000          90.000            1.304e+00           1.304e+00             154.520          -1.361e+02             327.155           4.000e+01     
  38.000          90.000            1.211e+00           1.211e+00             154.608          -1.360e+02             324.877           4.000e+01     
  39.000          90.000            1.115e+00           1.115e+00             154.698          -1.358e+02             322.793           4.000e+01     
  40.000          90.000            1.016e+00           1.016e+00             154.790          -1.357e+02             320.904           4.000e+01     
  41.000          90.000            9.153e-01           9.153e-01             154.884          -1.356e+02             319.212           4.000e+01     
  42.000          90.000            8.117e-01           8.117e-01             154.981          -1.354e+02             317.713           4.000e+01     
  43.000          90.000            7.055e-01           7.055e-01             155.079          -1.352e+02             316.402           4.000e+01     
  44.000          90.000            5.968e-01           5.968e-01             155.180          -1.351e+02             315.271           4.000e+01     
  45.000          90.000            4.855e-01           4.855e-01             155.282          -1.349e+02             314.314           4.000e+01     
  46.000          90.000            3.717e-01           3.717e-01             155.387          -1.347e+02             313.522           4.000e+01     
  47.000          90.000            2.554e-01           2.554e-01             155.495          -1.346e+02             312.887           4.000e+01     
  48.000          90.000            1.365e-01           1.365e-01             155.604          -1.344e+02             312.400           4.000e+01     
  49.000          90.000            1.513e-02           1.513e-02             155.716          -1.342e+02             312.051           4.000e+01     
  50.000          90.000           -1.088e-01          -1.088e-01             155.831          -1.340e+02             311.833           4.000e+01     
  51.000          90.000           -2.352e-01          -2.352e-01             155.948          -1.338e+02             311.736           4.000e+01     
  52.000          90.000           -3.641e-01          -3.641e-01             156.068          -1.337e+02             311.754           4.000e+01     
  53.000          90.000           -4.955e-01          -4.955e-01             156.191          -1.335e+02             311.877           4.000e+01     
  54.000          90.000           -6.294e-01          -6.294e-01             156.316          -1.333e+02             312.098           4.000e+01     
  55.000          90.000           -7.658e-01          -7.658e-01             156.445          -1.331e+02             312.410           4.000e+01     
  56.000          90.000           -9.046e-01          -9.046e-01             156.576          -1.330e+02             312.806           4.000e+01     
  57.000          90.000           -1.046e+00          -1.046e+00             156.711          -1.328e+02             313.277           4.000e+01     
  58.000          90.000           -1.190e+00          -1.190e+00             156.848          -1.326e+02             313.817           4.000e+01     
  59.000          90.000           -1.336e+00          -1.336e+00             156.989          -1.324e+02             314.420           4.000e+01     
  60.000          90.000           -1.485e+00          -1.485e+00             157.134          -1.323e+02             315.080           4.000e+01     
  61.000          90.000           -1.637e+00          -1.637e+00             157.281          -1.321e+02             315.789           4.000e+01     
  62.000          90.000           -1.791e+00          -1.791e+00             157.433          -1.319e+02             316.543           4.000e+01     
  63.000          90.000           -1.947e+00          -1.947e+00             157.588          -1.317e+02             317.335           4.000e+01     
  64.000          90.000           -2.107e+00          -2.107e+00             157.747          -1.315e+02             318.161           4.000e+01     
  65.000          90.000           -2.268e+00          -2.268e+00             157.909          -1.313e+02             319.014           4.000e+01     
  66.000          90.000           -2.433e+00          -2.433e+00             158.076          -1.312e+02             319.890           4.000e+01     
  67.000          90.000           -2.600e+00          -2.600e+00             158.247          -1.310e+02             320.785           4.000e+01     
  68.000          90.000           -2.769e+00          -2.769e+00             158.422          -1.308e+02             321.693           4.000e+01     
  69.000          90.000           -2.942e+00          -2.942e+00             158.602          -1.306e+02             322.611           4.000e+01     
  70.000          90.000           -3.117e+00          -3.117e+00             158.786          -1.304e+02             323.535           4.000e+01     
  71.000          90.000           -3.295e+00          -3.295e+00             158.975          -1.302e+02             324.462           4.000e+01     
  72.000          90.000           -3.476e+00          -3.476e+00             159.168          -1.300e+02             325.388           4.000e+01     
  73.000          90.000           -3.659e+00          -3.659e+00             159.367          -1.298e+02             326.310           4.000e+01     
  74.000          90.000           -3.846e+00          -3.846e+00             159.571          -1.296e+02             327.227           4.000e+01     
  75.000          90.000           -4.035e+00          -4.035e+00             159.780          -1.295e+02             328.135           4.000e+01     
  76.000          90.000           -4.228e+00          -4.228e+00             159.994          -1.293e+02             329.033           4.000e+01     
  77.000          90.000           -4.424e+00          -4.424e+00             160.214          -1.291e+02             329.919           4.000e+01     
  78.000          90.000           -4.622e+00          -4.622e+00             160.440          -1.289e+02             330.792           4.000e+01     
  79.000          90.000           -4.825e+00          -4.825e+00             160.672          -1.287e+02             331.650           4.000e+01     
  80.000          90.000           -5.030e+00          -5.030e+00             160.910          -1.285e+02             332.493           4.000e+01     
  81.000          90.000           -5.240e+00          -5.240e+00             161.155          -1.283e+02             333.319           4.000e+01     
  82.000          90.000           -5.452e+00          -5.452e+00             161.406          -1.282e+02             334.128           4.000e+01     
  83.000          90.000           -5.669e+00          -5.669e+00             161.664          -1.280e+02             334.920           4.000e+01     
  84.000          90.000           -5.889e+00          -5.889e+00             161.930          -1.278e+02             335.695           4.000e+01     
  85.000          90.000           -6.114e+00          -6.114e+00             162.202          -1.276e+02             336.452           4.000e+01     
  86.000          90.000           -6.343e+00          -6.343e+00             162.483          -1.275e+02             337.191           4.000e+01     
  87.000          90.000           -6.576e+00          -6.576e+00             162.771          -1.273e+02             337.913           4.000e+01     
  88.000          90.000           -6.813e+00          -6.813e+00             163.068          -1.271e+02             338.618           4.000e+01     
  89.000          90.000           -7.055e+00          -7.055e+00             163.373          -1.270e+02             339.306           4.000e+01     
  90.000          90.000           -7.303e+00          -7.303e+00             163.687          -1.268e+02             339.977           4.000e+01     
  91.000          90.000           -7.555e+00          -7.555e+00             164.011          -1.267e+02             340.633           4.000e+01     
  92.000          90.000           -7.814e+00          -7.814e+00             164.345          -1.265e+02             341.273           4.000e+01     
  93.000          90.000           -8.077e+00          -8.077e+00             164.689          -1.264e+02             341.898           4.000e+01     
  94.000          90.000           -8.348e+00          -8.348e+00             165.044          -1.262e+02             342.509           4.000e+01     
  95.000          90.000           -8.624e+00          -8.624e+00             165.411          -1.261e+02             343.107           4.000e+01     
  96.000          90.000           -8.907e+00          -8.907e+00             165.790          -1.260e+02             343.692           4.000e+01     
  97.000          90.000           -9.198e+00          -9.198e+00             166.182          -1.258e+02             344.264           4.000e+01     
  98.000          90.000           -9.496e+00          -9.496e+00             166.587          -1.257e+02             344.826           4.000e+01     
  99.000          90.000           -9.803e+00          -9.803e+00             167.008          -1.256e+02             345.376           4.000e+01     
 100.000          90.000           -1.012e+01          -1.012e+01             167.445          -1.255e+02             345.917           4.000e+01     
 101.000          90.000           -1.044e+01          -1.044e+01             167.898          -1.254e+02             346.449           4.000e+01     
 102.000          90.000           -1.078e+01          -1.078e+01             168.370          -1.253e+02             346.973           4.000e+01     
 103.000          90.000           -1.112e+01          -1.112e+01             168.863          -1.252e+02             347.490           4.000e+01     
 104.000          90.000           -1.148e+01          -1.148e+01             169.377          -1.251e+02             348.000           4.000e+01     
 105.000          90.000           -1.185e+01          -1.185e+01             169.915          -1.250e+02             348.504           4.000e+01     
 106.000          90.000           -1.224e+01          -1.224e+01             170.481          -1.249e+02             349.004           4.000e+01     
 107.000          90.000           -1.263e+01          -1.263e+01             171.076          -1.249e+02             349.499           4.000e+01     
 108.000          90.000           -1.305e+01          -1.305e+01             171.704          -1.248e+02             349.992           4.000e+01     
 109.000          90.000           -1.348e+01          -1.348e+01             172.370          -1.247e+02             350.483           4.000e+01     
 110.000          90.000           -1.394e+01          -1.394e+01             173.078          -1.247e+02             350.972           4.000e+01     
 111.000          90.000           -1.441e+01          -1.441e+01             173.835          -1.246e+02             351.462           4.000e+01     
 112.000          90.000           -1.491e+01          -1.491e+01             174.649          -1.246e+02             351.952           4.000e+01     
 113.000          90.000           -1.543e+01          -1.543e+01             175.528          -1.245e+02             352.444           4.000e+01     
 114.000          90.000           -1.598e+01          -1.598e+01             176.485          -1.245e+02             352.939           4.000e+01     
 115.000          90.000           -1.657e+01          -1.657e+01             177.534          -1.245e+02             353.437           4.000e+01     
 116.000          90.000           -1.720e+01          -1.720e+01             178.694          -1.245e+02             353.941           4.000e+01     
 117.000          90.000           -1.786e+01          -1.786e+01             179.991          -1.244e+02             354.451           4.000e+01     
 118.000          90.000           -1.858e+01          -1.858e+01             181.455          -1.244e+02             354.968           4.000e+01     
 119.000          90.000           -1.935e+01          -1.935e+01             183.133          -1.244e+02             355.494           4.000e+01     
 120.000          90.000           -2.019e+01          -2.019e+01             185.084          -1.244e+02             356.030           4.000e+01     
 121.000          90.000           -2.110e+01          -2.110e+01             187.395          -1.244e+02             356.577           4.000e+01     
 122.000          90.000           -2.210e+01          -2.210e+01             190.188          -1.245e+02             357.137           4.000e+01     
 123.000          90.000           -2.320e+01          -2.320e+01             193.649          -1.245e+02             357.711           4.000e+01     
 124.000          90.000           -2.441e+01          -2.441e+01             198.054          -1.245e+02             358.301           4.000e+01     
 125.000          90.000           -2.575e+01          -2.575e+01             203.841          -1.246e+02             358.909           4.000e+01     
 126.000          90.000           -2.719e+01          -2.719e+01             211.668          -1.246e+02             359.536           4.000e+01     
 127.000          90.000           -2.867e+01          -2.867e+01             222.476          -1.246e+02               0.185           4.000e+01     
 128.000          90.000           -2.995e+01          -2.995e+01             237.210          -1.247e+02               0.857           4.000e+01     
 129.000          90.000           -3.064e+01          -3.064e+01             255.653          -1.248e+02               1.555           4.000e+01     
 130.000          90.000           -3.041e+01          -3.041e+01             275.025          -1.248e+02               2.282           4.000e+01     
 131.000          90.000           -2.938e+01          -2.938e+01             291.683          -1.249e+02               3.039           4.000e+01     
 132.000          90.000           -2.800e+01          -2.800e+01             304.264          -1.250e+02               3.830           4.000e+01     
 133.000          90.000           -2.656e+01          -2.656e+01             313.376          -1.251e+02               4.657           4.000e+01     
 134.000          90.000           -2.521e+01          -2.521e+01             320.036          -1.252e+02               5.524           4.000e+01     
 135.000          90.000           -2.398e+01          -2.398e+01             325.040          -1.253e+02               6.435           4.000e+01     
 136.000          90.000           -2.286e+01          -2.286e+01             328.921          -1.254e+02               7.392           4.000e+01     
 137.000          90.000           -2.186e+01          -2.186e+01             332.021          -1.256e+02               8.401           4.000e+01     
 138.000          90.000           -2.095e+01          -2.095e+01             334.563          -1.257e+02               9.465           4.000e+01     
 139.000          90.000           -2.012e+01          -2.012e+01             336.696          -1.258e+02              10.589           4.000e+01     
 140.000          90.000           -1.936e+01          -1.936e+01             338.521          -1.260e+02              11.778           4.000e+01     
 141.000          90.000           -1.866e+01          -1.866e+01             340.110          -1.261e+02              13.037           4.000e+01     
 142.000          90.000           -1.802e+01          -1.802e+01             341.513          -1.263e+02              14.372           4.000e+01     
 143.000          90.000           -1.742e+01          -1.742e+01             342.770          -1.265e+02              15.789           4.000e+01     
 144.000          90.000           -1.686e+01          -1.686e+01             343.907          -1.266e+02              17.294           4.000e+01     
 145.000          90.000           -1.634e+01          -1.634e+01             344.946          -1.268e+02              18.893           4.000e+01     
 146.000          90.000           -1.586e+01          -1.586e+01             345.904          -1.270e+02              20.594           4.000e+01     
 147.000          90.000           -1.540e+01          -1.540e+01             346.794          -1.271e+02              22.402           4.000e+01     
 148.000          90.000           -1.496e+01          -1.496e+01             347.627          -1.273e+02              24.324           4.000e+01     
 149.000          90.000           -1.456e+01          -1.456e+01             348.410          -1.275e+02              26.367           4.000e+01     
 150.000          90.000           -1.417e+01          -1.417e+01             349.151          -1.277e+02              28.535           4.000e+01     
 151.000          90.000           -1.381e+01          -1.381e+01             349.856          -1.279e+02              30.833           4.000e+01     
 152.000          90.000           -1.346e+01          -1.346e+01             350.528          -1.280e+02              33.264           4.000e+01     
 153.000          90.000           -1.313e+01          -1.313e+01             351.173          -1.282e+02              35.831           4.000e+01     
 154.000          90.000           -1.282e+01          -1.282e+01             351.792          -1.283e+02              38.531           4.000e+01     
 155.000          90.000           -1.252e+01          -1.252e+01             352.390          -1.284e+02              41.361           4.000e+01     
 156.000          90.000           -1.223e+01          -1.223e+01             352.968          -1.286e+02              44.314           4.000e+01     
 157.000          90.000           -1.196e+01          -1.196e+01             353.528          -1.287e+02              47.381           4.000e+01     
 158.000          90.000           -1.171e+01          -1.171e+01             354.073          -1.287e+02              50.546           4.000e+01     
 159.000          90.000           -1.146e+01          -1.146e+01             354.603          -1.288e+02              53.792           4.000e+01     
 160.000          90.000           -1.123e+01          -1.123e+01             355.121          -1.288e+02              57.098           4.000e+01     
 161.000          90.000           -1.100e+01          -1.100e+01             355.627          -1.288e+02              60.441           4.000e+01     
 162.000          90.000           -1.079e+01          -1.079e+01             356.123          -1.287e+02              63.794           4.000e+01     
 163.000          90.000           -1.059e+01          -1.059e+01             356.609          -1.287e+02              67.133           4.000e+01     
 164.000          90.000           -1.039e+01          -1.039e+01             357.086          -1.286e+02              70.432           4.000e+01     
 165.000          90.000           -1.021e+01          -1.021e+01             357.556          -1.285e+02              73.666           4.000e+01     
 166.000          90.000           -1.003e+01          -1.003e+01             358.019          -1.283e+02              76.814           4.000e+01     
 167.000          90.000           -9.868e+00          -9.868e+00             358.475          -1.281e+02              79.859           4.000e+01     
 168.000          90.000           -9.709e+00          -9.709e+00             358.925          -1.279e+02              82.784           4.000e+01     
 169.000          90.000           -9.559e+00          -9.559e+00             359.371          -1.277e+02              85.580           4.000e+01     
 170.000          90.000           -9.417e+00          -9.417e+00             359.811          -1.275e+02              88.239           4.000e+01     
 171.000          90.000           -9.283e+00          -9.283e+00               0.248          -1.273e+02              90.757           4.000e+01     
 172.000          90.000           -9.156e+00          -9.156e+00               0.680          -1.270e+02              93.132           4.000e+01     
 173.000          90.000           -9.036e+00          -9.036e+00               1.110          -1.267e+02              95.366           4.000e+01     
 174.000          90.000           -8.924e+00          -8.924e+00               1.536          -1.265e+02              97.462           4.000e+01     
 175.000          90.000           -8.818e+00          -8.818e+00               1.961          -1.262e+02              99.423           4.000e+01     
 176.000          90.000           -8.720e+00          -8.720e+00               2.383          -1.260e+02             101.255           4.000e+01     
 177.000          90.000           -8.628e+00          -8.628e+00               2.804          -1.257e+02             102.964           4.000e+01     
 178.000          90.000           -8.544e+00          -8.544e+00               3.224          -1.254e+02             104.557           4.000e+01     
 179.000          90.000           -8.465e+00          -8.465e+00               3.644          -1.252e+02             106.040           4.000e+01     
 180.000          90.000           -8.394e+00          -8.394e+00               4.063          -1.249e+02             107.417           4.000e+01     
 179.000         270.000           -8.329e+00          -8.329e+00             184.482          -1.247e+02             288.699           4.000e+01     
 178.000         270.000           -8.270e+00          -8.270e+00             184.902          -1.244e+02             289.891           4.000e+01     
 177.000         270.000           -8.218e+00          -8.218e+00             185.324          -1.242e+02             290.997           4.000e+01     
 176.000         270.000           -8.172e+00          -8.172e+00             185.746          -1.239e+02             292.024           4.000e+01     
 175.000         270.000           -8.132e+00          -8.132e+00             186.171          -1.237e+02             292.977           4.000e+01     
 174.000         270.000           -8.099e+00          -8.099e+00             186.598          -1.235e+02             293.861           4.000e+01     
 173.000         270.000           -8.071e+00          -8.071e+00             187.028          -1.233e+02             294.680           4.000e+01     
 172.000         270.000           -8.050e+00          -8.050e+00             187.462          -1.230e+02             295.439           4.000e+01     
 171.000         270.000           -8.035e+00          -8.035e+00             187.899          -1.228e+02             296.143           4.000e+01     
 170.000         270.000           -8.026e+00          -8.026e+00             188.342          -1.226e+02             296.793           4.000e+01     
 169.000         270.000           -8.023e+00          -8.023e+00             188.789          -1.224e+02             297.394           4.000e+01     
 168.000         270.000           -8.026e+00          -8.026e+00             189.241          -1.223e+02             297.950           4.000e+01     
 167.000         270.000           -8.036e+00          -8.036e+00             189.701          -1.221e+02             298.462           4.000e+01     
 166.000         270.000           -8.051e+00          -8.051e+00             190.167          -1.219e+02             298.934           4.000e+01     
 165.000         270.000           -8.073e+00          -8.073e+00             190.640          -1.217e+02             299.368           4.000e+01     
 164.000         270.000           -8.100e+00          -8.100e+00             191.123          -1.216e+02             299.767           4.000e+01     
 163.000         270.000           -8.134e+00          -8.134e+00             191.614          -1.214e+02             300.132           4.000e+01     
 162.000         270.000           -8.174e+00          -8.174e+00             192.116          -1.213e+02             300.466           4.000e+01     
 161.000         270.000           -8.219e+00          -8.219e+00             192.628          -1.211e+02             300.769           4.000e+01     
 160.000         270.000           -8.271e+00          -8.271e+00             193.152          -1.210e+02             301.045           4.000e+01     
 159.000         270.000           -8.329e+00          -8.329e+00             193.689          -1.208e+02             301.295           4.000e+01     
 158.000         270.000           -8.394e+00          -8.394e+00             194.240          -1.207e+02             301.519           4.000e+01     
 157.000         270.000           -8.464e+00          -8.464e+00             194.806          -1.206e+02             301.719           4.000e+01     
 156.000         270.000           -8.541e+00          -8.541e+00             195.389          -1.205e+02             301.897           4.000e+01     
 155.000         270.000           -8.624e+00          -8.624e+00             195.989          -1.204e+02             302.054           4.000e+01     
 154.000         270.000           -8.713e+00          -8.713e+00             196.608          -1.203e+02             302.190           4.000e+01     
 153.000         270.000           -8.809e+00          -8.809e+00             197.248          -1.201e+02             302.307           4.000e+01     
 152.000         270.000           -8.910e+00          -8.910e+00             197.910          -1.200e+02             302.406           4.000e+01     
 151.000         270.000           -9.019e+00          -9.019e+00             198.596          -1.200e+02             302.487           4.000e+01     
 150.000         270.000           -9.133e+00          -9.133e+00             199.307          -1.199e+02             302.551           4.000e+01     
 149.000         270.000           -9.254e+00          -9.254e+00             200.047          -1.198e+02             302.599           4.000e+01     
 148.000         270.000           -9.381e+00          -9.381e+00             200.817          -1.197e+02             302.632           4.000e+01     
 147.000         270.000           -9.515e+00          -9.515e+00             201.620          -1.196e+02             302.650           4.000e+01     
 146.000         270.000           -9.655e+00          -9.655e+00             202.458          -1.195e+02             302.654           4.000e+01     
 145.000         270.000           -9.801e+00          -9.801e+00             203.334          -1.195e+02             302.644           4.000e+01     
 144.000         270.000           -9.954e+00          -9.954e+00             204.250          -1.194e+02             302.621           4.000e+01     
 143.000         270.000           -1.011e+01          -1.011e+01             205.211          -1.194e+02             302.585           4.000e+01     
 142.000         270.000           -1.028e+01          -1.028e+01             206.220          -1.193e+02             302.537           4.000e+01     
 141.000         270.000           -1.045e+01          -1.045e+01             207.281          -1.192e+02             302.478           4.000e+01     
 140.000         270.000           -1.063e+01          -1.063e+01             208.397          -1.192e+02             302.406           4.000e+01     
 139.000         270.000           -1.081e+01          -1.081e+01             209.574          -1.191e+02             302.324           4.000e+01     
 138.000         270.000           -1.100e+01          -1.100e+01             210.815          -1.191e+02             302.231           4.000e+01     
 137.000         270.000           -1.119e+01          -1.119e+01             212.126          -1.191e+02             302.127           4.000e+01     
 136.000         270.000           -1.139e+01          -1.139e+01             213.512          -1.190e+02             302.012           4.000e+01     
 135.000         270.000           -1.159e+01          -1.159e+01             214.980          -1.190e+02             301.888           4.000e+01     
 134.000         270.000           -1.179e+01          -1.179e+01             216.534          -1.190e+02             301.754           4.000e+01     
 133.000         270.000           -1.200e+01          -1.200e+01             218.181          -1.189e+02             301.610           4.000e+01     
 132.000         270.000           -1.221e+01          -1.221e+01             219.927          -1.189e+02             301.456           4.000e+01     
 131.000         270.000           -1.242e+01          -1.242e+01             221.778          -1.189e+02             301.293           4.000e+01     
 130.000         270.000           -1.264e+01          -1.264e+01             223.741          -1.189e+02             301.121           4.000e+01     
 129.000         270.000           -1.284e+01          -1.284e+01             225.821          -1.189e+02             300.940           4.000e+01     
 128.000         270.000           -1.305e+01          -1.305e+01             228.024          -1.188e+02             300.749           4.000e+01     
 127.000         270.000           -1.325e+01          -1.325e+01             230.354          -1.188e+02             300.550           4.000e+01     
 126.000         270.000           -1.344e+01          -1.344e+01             232.814          -1.188e+02             300.342           4.000e+01     
 125.000         270.000           -1.362e+01          -1.362e+01             235.405          -1.188e+02             300.125           4.000e+01     
 124.000         270.000           -1.379e+01          -1.379e+01             238.128          -1.188e+02             299.899           4.000e+01     
 123.000         270.000           -1.395e+01          -1.395e+01             240.978          -1.188e+02             299.664           4.000e+01     
 122.000         270.000           -1.409e+01          -1.409e+01             243.949          -1.188e+02             299.421           4.000e+01     
 121.000         270.000           -1.420e+01          -1.420e+01             247.033          -1.188e+02             299.168           4.000e+01     
 120.000         270.000           -1.430e+01          -1.430e+01             250.216          -1.188e+02             298.907           4.000e+01     
 119.000         270.000           -1.436e+01          -1.436e+01             253.482          -1.188e+02             298.637           4.000e+01     
 118.000         270.000           -1.440e+01          -1.440e+01             256.811          -1.189e+02             298.358           4.000e+01     
 117.000         270.000           -1.441e+01          -1.441e+01             260.181          -1.189e+02             298.070           4.000e+01     
 116.000         270.000           -1.439e+01          -1.439e+01             263.569          -1.189e+02             297.774           4.000e+01     
 115.000         270.000           -1.434e+01          -1.434e+01             266.950          -1.189e+02             297.468           4.000e+01     
 114.000         270.000           -1.426e+01          -1.426e+01             270.298          -1.189e+02             297.153           4.000e+01     
 113.000         270.000           -1.415e+01          -1.415e+01             273.590          -1.189e+02             296.829           4.000e+01     
 112.000         270.000           -1.401e+01          -1.401e+01             276.806          -1.190e+02             296.496           4.000e+01     
 111.000         270.000           -1.385e+01          -1.385e+01             279.927          -1.190e+02             296.153           4.000e+01     
 110.000         270.000           -1.366e+01          -1.366e+01             282.937          -1.190e+02             295.801           4.000e+01     
 109.000         270.000           -1.346e+01          -1.346e+01             285.826          -1.190e+02             295.439           4.000e+01     
 108.000         270.000           -1.323e+01          -1.323e+01             288.584          -1.191e+02             295.068           4.000e+01     
 107.000         270.000           -1.299e+01          -1.299e+01             291.207          -1.191e+02             294.687           4.000e+01     
 106.000         270.000           -1.274e+01          -1.274e+01             293.693          -1.191e+02             294.296           4.000e+01     
 105.000         270.000           -1.248e+01          -1.248e+01             296.042          -1.191e+02             293.895           4.000e+01     
 104.000         270.000           -1.221e+01          -1.221e+01             298.255          -1.192e+02             293.484           4.000e+01     
 103.000         270.000           -1.194e+01          -1.194e+01             300.337          -1.192e+02             293.063           4.000e+01     
 102.000         270.000           -1.166e+01          -1.166e+01             302.293          -1.192e+02             292.632           4.000e+01     
 101.000         270.000           -1.138e+01          -1.138e+01             304.128          -1.193e+02             292.191           4.000e+01     
 100.000         270.000           -1.110e+01          -1.110e+01             305.847          -1.193e+02             291.739           4.000e+01     
  99.000         270.000           -1.081e+01          -1.081e+01             307.458          -1.194e+02             291.276           4.000e+01     
  98.000         270.000           -1.053e+01          -1.053e+01             308.965          -1.194e+02             290.804           4.000e+01     
  97.000         270.000           -1.025e+01          -1.025e+01             310.377          -1.194e+02             290.320           4.000e+01     
  96.000         270.000           -9.972e+00          -9.972e+00             311.698          -1.195e+02             289.826           4.000e+01     
  95.000         270.000           -9.697e+00          -9.697e+00             312.935          -1.195e+02             289.321           4.000e+01     
  94.000         270.000           -9.425e+00          -9.425e+00             314.093          -1.196e+02             288.805           4.000e+01     
  93.000         270.000           -9.155e+00          -9.155e+00             315.177          -1.196e+02             288.278           4.000e+01     
  92.000         270.000           -8.890e+00          -8.890e+00             316.193          -1.196e+02             287.741           4.000e+01     
  91.000         270.000           -8.628e+00          -8.628e+00             317.144          -1.197e+02             287.193           4.000e+01     
  90.000         270.000           -8.370e+00          -8.370e+00             318.036          -1.197e+02             286.634           4.000e+01     
  89.000         270.000           -8.116e+00          -8.116e+00             318.872          -1.198e+02             286.064           4.000e+01     
  88.000         270.000           -7.866e+00          -7.866e+00             319.657          -1.198e+02             285.484           4.000e+01     
  87.000         270.000           -7.620e+00          -7.620e+00             320.393          -1.199e+02             284.893           4.000e+01     
  86.000         270.000           -7.378e+00          -7.378e+00             321.083          -1.199e+02             284.292           4.000e+01     
  85.000         270.000           -7.140e+00          -7.140e+00             321.732          -1.200e+02             283.680           4.000e+01     
  84.000         270.000           -6.905e+00          -6.905e+00             322.341          -1.200e+02             283.058           4.000e+01     
  83.000         270.000           -6.675e+00          -6.675e+00             322.913          -1.200e+02             282.426           4.000e+01     
  82.000         270.000           -6.449e+00          -6.449e+00             323.451          -1.201e+02             281.783           4.000e+01     
  81.000         270.000           -6.226e+00          -6.226e+00             323.956          -1.201e+02             281.131           4.000e+01     
  80.000         270.000           -6.007e+00          -6.007e+00             324.431          -1.202e+02             280.470           4.000e+01     
  79.000         270.000           -5.791e+00          -5.791e+00             324.878          -1.202e+02             279.799           4.000e+01     
  78.000         270.000           -5.579e+00          -5.579e+00             325.298          -1.203e+02             279.119           4.000e+01     
  77.000         270.000           -5.370e+00          -5.370e+00             325.693          -1.203e+02             278.430           4.000e+01     
  76.000         270.000           -5.165e+00          -5.165e+00             326.065          -1.203e+02             277.733           4.000e+01     
  75.000         270.000           -4.963e+00          -4.963e+00             326.414          -1.204e+02             277.028           4.000e+01     
  74.000         270.000           -4.765e+00          -4.765e+00             326.743          -1.204e+02             276.315           4.000e+01     
  73.000         270.000           -4.569e+00          -4.569e+00             327.053          -1.205e+02             275.594           4.000e+01     
  72.000         270.000           -4.377e+00          -4.377e+00             327.344          -1.205e+02             274.867           4.000e+01     
  71.000         270.000           -4.188e+00          -4.188e+00             327.618          -1.205e+02             274.132           4.000e+01     
  70.000         270.000           -4.001e+00          -4.001e+00             327.875          -1.206e+02             273.391           4.000e+01     
  69.000         270.000           -3.818e+00          -3.818e+00             328.117          -1.206e+02             272.645           4.000e+01     
  68.000         270.000           -3.637e+00          -3.637e+00             328.345          -1.207e+02             271.893           4.000e+01     
  67.000         270.000           -3.460e+00          -3.460e+00             328.559          -1.207e+02             271.136           4.000e+01     
  66.000         270.000           -3.284e+00          -3.284e+00             328.761          -1.207e+02             270.374           4.000e+01     
  65.000         270.000           -3.112e+00          -3.112e+00             328.950          -1.208e+02             269.609           4.000e+01     
  64.000         270.000           -2.942e+00          -2.942e+00             329.128          -1.208e+02             268.840           4.000e+01     
  63.000         270.000           -2.775e+00          -2.775e+00             329.295          -1.209e+02             268.067           4.000e+01     
  62.000         270.000           -2.611e+00          -2.611e+00             329.452          -1.209e+02             267.292           4.000e+01     
  61.000         270.000           -2.449e+00          -2.449e+00             329.600          -1.209e+02             266.515           4.000e+01     
  60.000         270.000           -2.290e+00          -2.290e+00             329.738          -1.210e+02             265.736           4.000e+01     
  59.000         270.000           -2.133e+00          -2.133e+00             329.868          -1.210e+02             264.955           4.000e+01     
  58.000         270.000           -1.978e+00          -1.978e+00             329.990          -1.210e+02             264.174           4.000e+01     
  57.000         270.000           -1.826e+00          -1.826e+00             330.105          -1.211e+02             263.393           4.000e+01     
  56.000         270.000           -1.677e+00          -1.677e+00             330.212          -1.211e+02             262.611           4.000e+01     
  55.000         270.000           -1.530e+00          -1.530e+00             330.313          -1.212e+02             261.831           4.000e+01     
  54.000         270.000           -1.385e+00          -1.385e+00             330.408          -1.212e+02             261.051           4.000e+01     
  53.000         270.000           -1.242e+00          -1.242e+00             330.496          -1.212e+02             260.272           4.000e+01     
  52.000         270.000           -1.102e+00          -1.102e+00             330.579          -1.213e+02             259.495           4.000e+01     
  51.000         270.000           -9.646e-01          -9.646e-01             330.657          -1.213e+02             258.720           4.000e+01     
  50.000         270.000           -8.292e-01          -8.292e-01             330.730          -1.214e+02             257.947           4.000e+01     
  49.000         270.000           -6.962e-01          -6.962e-01             330.799          -1.214e+02             257.177           4.000e+01     
  48.000         270.000           -5.654e-01          -5.654e-01             330.863          -1.214e+02             256.410           4.000e+01     
  47.000         270.000           -4.370e-01          -4.370e-01             330.923          -1.215e+02             255.646           4.000e+01     
  46.000         270.000           -3.108e-01          -3.108e-01             330.979          -1.215e+02             254.886           4.000e+01     
  45.000         270.000           -1.870e-01          -1.870e-01             331.032          -1.216e+02             254.130           4.000e+01     
  44.000         270.000           -6.553e-02          -6.553e-02             331.082          -1.216e+02             253.377           4.000e+01     
  43.000         270.000            5.365e-02           5.365e-02             331.129          -1.217e+02             252.629           4.000e+01     
  42.000         270.000            1.705e-01           1.705e-01             331.173          -1.217e+02             251.885           4.000e+01     
  41.000         270.000            2.850e-01           2.850e-01             331.214          -1.218e+02             251.146           4.000e+01     
  40.000         270.000            3.973e-01           3.973e-01             331.253          -1.218e+02             250.411           4.000e+01     
  39.000         270.000            5.071e-01           5.071e-01             331.290          -1.219e+02             249.681           4.000e+01     
  38.000         270.000            6.147e-01           6.147e-01             331.325          -1.219e+02             248.956           4.000e+01     
  37.000         270.000            7.198e-01           7.198e-01             331.358          -1.220e+02             248.236           4.000e+01     
  36.000         270.000            8.227e-01           8.227e-01             331.390          -1.221e+02             247.520           4.000e+01     
  35.000         270.000            9.231e-01           9.231e-01             331.419          -1.221e+02             246.809           4.000e+01     
  34.000         270.000            1.021e+00           1.021e+00             331.448          -1.222e+02             246.103           4.000e+01     
  33.000         270.000            1.117e+00           1.117e+00             331.475          -1.223e+02             245.402           4.000e+01     
  32.000         270.000            1.210e+00           1.210e+00             331.501          -1.223e+02             244.705           4.000e+01     
  31.000         270.000            1.301e+00           1.301e+00             331.527          -1.224e+02             244.012           4.000e+01     
  30.000         270.000            1.390e+00           1.390e+00             331.551          -1.225e+02             243.324           4.000e+01     
  29.000         270.000            1.476e+00           1.476e+00             331.575          -1.226e+02             242.641           4.000e+01     
  28.000         270.000            1.559e+00           1.559e+00             331.598          -1.227e+02             241.961           4.000e+01     
  27.000         270.000            1.640e+00           1.640e+00             331.621          -1.227e+02             241.285           4.000e+01     
  26.000         270.000            1.719e+00           1.719e+00             331.643          -1.228e+02             240.612           4.000e+01     
  25.000         270.000            1.795e+00           1.795e+00             331.665          -1.229e+02             239.943           4.000e+01     
  24.000         270.000            1.869e+00           1.869e+00             331.687          -1.230e+02             239.277           4.000e+01     
  23.000         270.000            1.940e+00           1.940e+00             331.708          -1.231e+02             238.613           4.000e+01     
  22.000         270.000            2.009e+00           2.009e+00             331.730          -1.233e+02             237.951           4.000e+01     
  21.000         270.000            2.075e+00           2.075e+00             331.752          -1.234e+02             237.292           4.000e+01     
  20.000         270.000            2.138e+00           2.138e+00             331.774          -1.235e+02             236.633           4.000e+01     
  19.000         270.000            2.199e+00           2.199e+00             331.796          -1.236e+02             235.976           4.000e+01     
  18.000         270.000            2.258e+00           2.258e+00             331.818          -1.237e+02             235.318           4.000e+01     
  17.000         270.000            2.314e+00           2.314e+00             331.841          -1.239e+02             234.661           4.000e+01     
  16.000         270.000            2.367e+00           2.367e+00             331.864          -1.240e+02             234.003           4.000e+01     
  15.000         270.000            2.417e+00           2.417e+00             331.887          -1.242e+02             233.343           4.000e+01     
  14.000         270.000            2.465e+00           2.465e+00             331.911          -1.243e+02             232.681           4.000e+01     
  13.000         270.000            2.511e+00           2.511e+00             331.936          -1.245e+02             232.016           4.000e+01     
  12.000         270.000            2.554e+00           2.554e+00             331.961          -1.246e+02             231.347           4.000e+01     
  11.000         270.000            2.594e+00           2.594e+00             331.987          -1.248e+02             230.673           4.000e+01     
  10.000         270.000            2.631e+00           2.631e+00             332.013          -1.250e+02             229.994           4.000e+01     
   9.000         270.000            2.666e+00           2.666e+00             332.040          -1.252e+02             229.308           4.000e+01     
   8.000         270.000            2.698e+00           2.698e+00             332.068          -1.253e+02             228.614           4.000e+01     
   7.000         270.000            2.727e+00           2.727e+00             332.097          -1.255e+02             227.911           4.000e+01     
   6.000         270.000            2.754e+00           2.754e+00             332.127          -1.257e+02             227.197           4.000e+01     
   5.000         270.000            2.778e+00           2.778e+00             332.157          -1.259e+02             226.471           4.000e+01     
   4.000         270.000            2.799e+00           2.799e+00             332.189          -1.262e+02             225.732           4.000e+01     
   3.000         270.000            2.818e+00           2.818e+00             332.221          -1.264e+02             224.977           4.000e+01     
   2.000         270.000            2.834e+00           2.834e+00             332.255          -1.266e+02             224.205           4.000e+01     
   1.000         270.000            2.847e+00           2.847e+00             332.289          -1.268e+02             223.413           4.000e+01     
