Theta [deg.]  Phi   [deg.]  Abs(Gain)[dBi   ]   Abs(Theta)[dBi   ]  Phase(Theta)[deg.]  Abs(Phi  )[dBi   ]  Phase(Phi  )[deg.]  Ax.Ratio[dB    ]    
------------------------------------------------------------------------------------------------------------------------------------------------------
   0.000          90.000            2.537e+00           2.537e+00             271.481          -1.277e+02             184.246           4.000e+01     
   1.000          90.000            2.538e+00           2.538e+00             271.526          -1.280e+02             184.533           4.000e+01     
   2.000          90.000            2.536e+00           2.536e+00             271.573          -1.284e+02             184.855           4.000e+01     
   3.000          90.000            2.531e+00           2.531e+00             271.621          -1.287e+02             185.214           4.000e+01     
   4.000          90.000            2.524e+00           2.524e+00             271.671          -1.290e+02             185.614           4.000e+01     
   5.000          90.000            2.513e+00           2.513e+00             271.722          -1.294e+02             186.058           4.000e+01     
   6.000          90.000            2.500e+00           2.500e+00             271.775          -1.298e+02             186.548           4.000e+01     
   7.000          90.000            2.484e+00           2.484e+00             271.830          -1.302e+02             187.090           4.000e+01     
   8.000          90.000            2.465e+00           2.465e+00             271.887          -1.305e+02             187.686           4.000e+01     
   9.000          90.000            2.443e+00           2.443e+00             271.945          -1.310e+02             188.343           4.000e+01     
  10.000          90.000            2.418e+00           2.418e+00             272.005          -1.314e+02             189.063           4.000e+01     
  11.000          90.000            2.390e+00           2.390e+00             272.066          -1.318e+02             189.854           4.000e+01     
  12.000          90.000            2.360e+00           2.360e+00             272.130          -1.323e+02             190.720           4.000e+01     
  13.000          90.000            2.327e+00           2.327e+00             272.195          -1.327e+02             191.668           4.000e+01     
  14.000          90.000            2.290e+00           2.290e+00             272.262          -1.332e+02             192.704           4.000e+01     
  15.000          90.000            2.252e+00           2.252e+00             272.331          -1.337e+02             193.835           4.000e+01     
  16.000          90.000            2.210e+00           2.210e+00             272.402          -1.342e+02             195.069           4.000e+01     
  17.000          90.000            2.165e+00           2.165e+00             272.475          -1.347e+02             196.411           4.000e+01     
  18.000          90.000            2.118e+00           2.118e+00             272.549          -1.352e+02             197.869           4.000e+01     
  19.000          90.000            2.068e+00           2.068e+00             272.626          -1.357e+02             199.449           4.000e+01     
  20.000          90.000            2.015e+00           2.015e+00             272.704          -1.362e+02             201.156           4.000e+01     
  21.000          90.000            1.959e+00           1.959e+00             272.785          -1.367e+02             202.991           4.000e+01     
  22.000          90.000            1.901e+00           1.901e+00             272.867          -1.372e+02             204.957           4.000e+01     
  23.000          90.000            1.840e+00           1.840e+00             272.952          -1.377e+02             207.051           4.000e+01     
  24.000          90.000            1.776e+00           1.776e+00             273.038          -1.382e+02             209.264           4.000e+01     
  25.000          90.000            1.710e+00           1.710e+00             273.127          -1.387e+02             211.586           4.000e+01     
  26.000          90.000            1.640e+00           1.640e+00             273.218          -1.392e+02             213.998           4.000e+01     
  27.000          90.000            1.569e+00           1.569e+00             273.310          -1.396e+02             216.475           4.000e+01     
  28.000          90.000            1.494e+00           1.494e+00             273.405          -1.401e+02             218.985           4.000e+01     
  29.000          90.000            1.417e+00           1.417e+00             273.503          -1.405e+02             221.491           4.000e+01     
  30.000          90.000            1.337e+00           1.337e+00             273.602          -1.408e+02             223.948           4.000e+01     
  31.000          90.000            1.255e+00           1.255e+00             273.704          -1.412e+02             226.311           4.000e+01     
  32.000          90.000            1.170e+00           1.170e+00             273.808          -1.415e+02             228.529           4.000e+01     
  33.000          90.000            1.083e+00           1.083e+00             273.915          -1.418e+02             230.553           4.000e+01     
  34.000          90.000            9.929e-01           9.929e-01             274.024          -1.420e+02             232.335           4.000e+01     
  35.000          90.000            9.004e-01           9.004e-01             274.135          -1.423e+02             233.830           4.000e+01     
  36.000          90.000            8.056e-01           8.056e-01             274.249          -1.425e+02             234.999           4.000e+01     
  37.000          90.000            7.082e-01           7.082e-01             274.366          -1.427e+02             235.805           4.000e+01     
  38.000          90.000            6.085e-01           6.085e-01             274.485          -1.428e+02             236.217           4.000e+01     
  39.000          90.000            5.063e-01           5.063e-01             274.606          -1.430e+02             236.211           4.000e+01     
  40.000          90.000            4.018e-01           4.018e-01             274.731          -1.431e+02             235.767           4.000e+01     
  41.000          90.000            2.949e-01           2.949e-01             274.858          -1.432e+02             234.872           4.000e+01     
  42.000          90.000            1.857e-01           1.857e-01             274.988          -1.433e+02             233.521           4.000e+01     
  43.000          90.000            7.418e-02           7.418e-02             275.121          -1.433e+02             231.719           4.000e+01     
  44.000          90.000           -3.959e-02          -3.959e-02             275.257          -1.433e+02             229.484           4.000e+01     
  45.000          90.000           -1.556e-01          -1.556e-01             275.396          -1.433e+02             226.848           4.000e+01     
  46.000          90.000           -2.738e-01          -2.738e-01             275.538          -1.432e+02             223.860           4.000e+01     
  47.000          90.000           -3.942e-01          -3.942e-01             275.683          -1.431e+02             220.583           4.000e+01     
  48.000          90.000           -5.168e-01          -5.168e-01             275.832          -1.429e+02             217.095           4.000e+01     
  49.000          90.000           -6.415e-01          -6.415e-01             275.984          -1.426e+02             213.481           4.000e+01     
  50.000          90.000           -7.682e-01          -7.682e-01             276.139          -1.423e+02             209.829           4.000e+01     
  51.000          90.000           -8.971e-01          -8.971e-01             276.298          -1.419e+02             206.219           4.000e+01     
  52.000          90.000           -1.028e+00          -1.028e+00             276.460          -1.415e+02             202.717           4.000e+01     
  53.000          90.000           -1.161e+00          -1.161e+00             276.626          -1.410e+02             199.384           4.000e+01     
  54.000          90.000           -1.296e+00          -1.296e+00             276.796          -1.405e+02             196.252           4.000e+01     
  55.000          90.000           -1.433e+00          -1.433e+00             276.970          -1.399e+02             193.343           4.000e+01     
  56.000          90.000           -1.572e+00          -1.572e+00             277.148          -1.394e+02             190.665           4.000e+01     
  57.000          90.000           -1.712e+00          -1.712e+00             277.329          -1.388e+02             188.217           4.000e+01     
  58.000          90.000           -1.855e+00          -1.855e+00             277.515          -1.382e+02             185.990           4.000e+01     
  59.000          90.000           -1.999e+00          -1.999e+00             277.705          -1.377e+02             183.970           4.000e+01     
  60.000          90.000           -2.146e+00          -2.146e+00             277.900          -1.371e+02             182.143           4.000e+01     
  61.000          90.000           -2.294e+00          -2.294e+00             278.099          -1.366e+02             180.491           4.000e+01     
  62.000          90.000           -2.444e+00          -2.444e+00             278.303          -1.360e+02             178.999           4.000e+01     
  63.000          90.000           -2.596e+00          -2.596e+00             278.511          -1.355e+02             177.650           4.000e+01     
  64.000          90.000           -2.749e+00          -2.749e+00             278.724          -1.350e+02             176.430           4.000e+01     
  65.000          90.000           -2.905e+00          -2.905e+00             278.943          -1.345e+02             175.325           4.000e+01     
  66.000          90.000           -3.062e+00          -3.062e+00             279.166          -1.340e+02             174.323           4.000e+01     
  67.000          90.000           -3.220e+00          -3.220e+00             279.394          -1.335e+02             173.414           4.000e+01     
  68.000          90.000           -3.381e+00          -3.381e+00             279.628          -1.330e+02             172.587           4.000e+01     
  69.000          90.000           -3.543e+00          -3.543e+00             279.867          -1.326e+02             171.833           4.000e+01     
  70.000          90.000           -3.707e+00          -3.707e+00             280.112          -1.321e+02             171.146           4.000e+01     
  71.000          90.000           -3.872e+00          -3.872e+00             280.363          -1.317e+02             170.518           4.000e+01     
  72.000          90.000           -4.039e+00          -4.039e+00             280.619          -1.313e+02             169.943           4.000e+01     
  73.000          90.000           -4.208e+00          -4.208e+00             280.882          -1.309e+02             169.416           4.000e+01     
  74.000          90.000           -4.379e+00          -4.379e+00             281.150          -1.305e+02             168.933           4.000e+01     
  75.000          90.000           -4.551e+00          -4.551e+00             281.425          -1.301e+02             168.489           4.000e+01     
  76.000          90.000           -4.725e+00          -4.725e+00             281.706          -1.298e+02             168.081           4.000e+01     
  77.000          90.000           -4.901e+00          -4.901e+00             281.994          -1.294e+02             167.706           4.000e+01     
  78.000          90.000           -5.079e+00          -5.079e+00             282.288          -1.291e+02             167.360           4.000e+01     
  79.000          90.000           -5.258e+00          -5.258e+00             282.590          -1.288e+02             167.041           4.000e+01     
  80.000          90.000           -5.439e+00          -5.439e+00             282.898          -1.285e+02             166.747           4.000e+01     
  81.000          90.000           -5.622e+00          -5.622e+00             283.213          -1.281e+02             166.476           4.000e+01     
  82.000          90.000           -5.807e+00          -5.807e+00             283.536          -1.278e+02             166.226           4.000e+01     
  83.000          90.000           -5.993e+00          -5.993e+00             283.867          -1.276e+02             165.996           4.000e+01     
  84.000          90.000           -6.182e+00          -6.182e+00             284.205          -1.273e+02             165.783           4.000e+01     
  85.000          90.000           -6.373e+00          -6.373e+00             284.550          -1.270e+02             165.588           4.000e+01     
  86.000          90.000           -6.566e+00          -6.566e+00             284.904          -1.267e+02             165.408           4.000e+01     
  87.000          90.000           -6.761e+00          -6.761e+00             285.267          -1.265e+02             165.243           4.000e+01     
  88.000          90.000           -6.958e+00          -6.958e+00             285.637          -1.262e+02             165.092           4.000e+01     
  89.000          90.000           -7.157e+00          -7.157e+00             286.016          -1.260e+02             164.954           4.000e+01     
  90.000          90.000           -7.359e+00          -7.359e+00             286.405          -1.258e+02             164.828           4.000e+01     
  91.000          90.000           -7.564e+00          -7.564e+00             286.802          -1.255e+02             164.713           4.000e+01     
  92.000          90.000           -7.771e+00          -7.771e+00             287.208          -1.253e+02             164.610           4.000e+01     
  93.000          90.000           -7.981e+00          -7.981e+00             287.625          -1.251e+02             164.517           4.000e+01     
  94.000          90.000           -8.194e+00          -8.194e+00             288.051          -1.249e+02             164.434           4.000e+01     
  95.000          90.000           -8.410e+00          -8.410e+00             288.488          -1.247e+02             164.360           4.000e+01     
  96.000          90.000           -8.629e+00          -8.629e+00             288.935          -1.245e+02             164.296           4.000e+01     
  97.000          90.000           -8.851e+00          -8.851e+00             289.393          -1.243e+02             164.240           4.000e+01     
  98.000          90.000           -9.077e+00          -9.077e+00             289.863          -1.241e+02             164.193           4.000e+01     
  99.000          90.000           -9.307e+00          -9.307e+00             290.344          -1.240e+02             164.154           4.000e+01     
 100.000          90.000           -9.541e+00          -9.541e+00             290.838          -1.238e+02             164.122           4.000e+01     
 101.000          90.000           -9.779e+00          -9.779e+00             291.345          -1.236e+02             164.098           4.000e+01     
 102.000          90.000           -1.002e+01          -1.002e+01             291.866          -1.235e+02             164.082           4.000e+01     
 103.000          90.000           -1.027e+01          -1.027e+01             292.401          -1.233e+02             164.073           4.000e+01     
 104.000          90.000           -1.052e+01          -1.052e+01             292.950          -1.232e+02             164.070           4.000e+01     
 105.000          90.000           -1.078e+01          -1.078e+01             293.516          -1.230e+02             164.075           4.000e+01     
 106.000          90.000           -1.104e+01          -1.104e+01             294.098          -1.229e+02             164.086           4.000e+01     
 107.000          90.000           -1.132e+01          -1.132e+01             294.699          -1.228e+02             164.103           4.000e+01     
 108.000          90.000           -1.159e+01          -1.159e+01             295.319          -1.226e+02             164.127           4.000e+01     
 109.000          90.000           -1.188e+01          -1.188e+01             295.959          -1.225e+02             164.157           4.000e+01     
 110.000          90.000           -1.217e+01          -1.217e+01             296.622          -1.224e+02             164.193           4.000e+01     
 111.000          90.000           -1.247e+01          -1.247e+01             297.308          -1.223e+02             164.234           4.000e+01     
 112.000          90.000           -1.278e+01          -1.278e+01             298.021          -1.222e+02             164.282           4.000e+01     
 113.000          90.000           -1.310e+01          -1.310e+01             298.763          -1.221e+02             164.336           4.000e+01     
 114.000          90.000           -1.343e+01          -1.343e+01             299.536          -1.220e+02             164.395           4.000e+01     
 115.000          90.000           -1.377e+01          -1.377e+01             300.344          -1.219e+02             164.459           4.000e+01     
 116.000          90.000           -1.412e+01          -1.412e+01             301.190          -1.218e+02             164.529           4.000e+01     
 117.000          90.000           -1.449e+01          -1.449e+01             302.079          -1.217e+02             164.605           4.000e+01     
 118.000          90.000           -1.486e+01          -1.486e+01             303.017          -1.217e+02             164.685           4.000e+01     
 119.000          90.000           -1.526e+01          -1.526e+01             304.008          -1.216e+02             164.771           4.000e+01     
 120.000          90.000           -1.567e+01          -1.567e+01             305.062          -1.215e+02             164.863           4.000e+01     
 121.000          90.000           -1.610e+01          -1.610e+01             306.187          -1.215e+02             164.959           4.000e+01     
 122.000          90.000           -1.655e+01          -1.655e+01             307.392          -1.214e+02             165.060           4.000e+01     
 123.000          90.000           -1.702e+01          -1.702e+01             308.692          -1.214e+02             165.167           4.000e+01     
 124.000          90.000           -1.752e+01          -1.752e+01             310.102          -1.213e+02             165.278           4.000e+01     
 125.000          90.000           -1.804e+01          -1.804e+01             311.642          -1.213e+02             165.394           4.000e+01     
 126.000          90.000           -1.859e+01          -1.859e+01             313.335          -1.212e+02             165.515           4.000e+01     
 127.000          90.000           -1.918e+01          -1.918e+01             315.212          -1.212e+02             165.641           4.000e+01     
 128.000          90.000           -1.979e+01          -1.979e+01             317.312          -1.212e+02             165.772           4.000e+01     
 129.000          90.000           -2.045e+01          -2.045e+01             319.685          -1.211e+02             165.907           4.000e+01     
 130.000          90.000           -2.114e+01          -2.114e+01             322.392          -1.211e+02             166.047           4.000e+01     
 131.000          90.000           -2.187e+01          -2.187e+01             325.514          -1.211e+02             166.192           4.000e+01     
 132.000          90.000           -2.265e+01          -2.265e+01             329.158          -1.211e+02             166.341           4.000e+01     
 133.000          90.000           -2.346e+01          -2.346e+01             333.458          -1.211e+02             166.496           4.000e+01     
 134.000          90.000           -2.431e+01          -2.431e+01             338.584          -1.211e+02             166.655           4.000e+01     
 135.000          90.000           -2.516e+01          -2.516e+01             344.734          -1.211e+02             166.818           4.000e+01     
 136.000          90.000           -2.599e+01          -2.599e+01             352.118          -1.211e+02             166.987           4.000e+01     
 137.000          90.000           -2.673e+01          -2.673e+01               0.891          -1.211e+02             167.160           4.000e+01     
 138.000          90.000           -2.731e+01          -2.731e+01              11.037          -1.211e+02             167.337           4.000e+01     
 139.000          90.000           -2.762e+01          -2.762e+01              22.231          -1.212e+02             167.520           4.000e+01     
 140.000          90.000           -2.762e+01          -2.762e+01              33.803          -1.212e+02             167.708           4.000e+01     
 141.000          90.000           -2.729e+01          -2.729e+01              44.935          -1.212e+02             167.900           4.000e+01     
 142.000          90.000           -2.672e+01          -2.672e+01              54.980          -1.213e+02             168.098           4.000e+01     
 143.000          90.000           -2.598e+01          -2.598e+01              63.639          -1.213e+02             168.300           4.000e+01     
 144.000          90.000           -2.517e+01          -2.517e+01              70.916          -1.214e+02             168.508           4.000e+01     
 145.000          90.000           -2.433e+01          -2.433e+01              76.973          -1.215e+02             168.721           4.000e+01     
 146.000          90.000           -2.351e+01          -2.351e+01              82.020          -1.215e+02             168.940           4.000e+01     
 147.000          90.000           -2.272e+01          -2.272e+01              86.256          -1.216e+02             169.165           4.000e+01     
 148.000          90.000           -2.196e+01          -2.196e+01              89.845          -1.217e+02             169.395           4.000e+01     
 149.000          90.000           -2.125e+01          -2.125e+01              92.922          -1.218e+02             169.632           4.000e+01     
 150.000          90.000           -2.059e+01          -2.059e+01              95.588          -1.219e+02             169.875           4.000e+01     
 151.000          90.000           -1.996e+01          -1.996e+01              97.925          -1.219e+02             170.124           4.000e+01     
 152.000          90.000           -1.937e+01          -1.937e+01              99.994          -1.221e+02             170.381           4.000e+01     
 153.000          90.000           -1.882e+01          -1.882e+01             101.843          -1.222e+02             170.645           4.000e+01     
 154.000          90.000           -1.830e+01          -1.830e+01             103.511          -1.223e+02             170.917           4.000e+01     
 155.000          90.000           -1.782e+01          -1.782e+01             105.027          -1.224e+02             171.197           4.000e+01     
 156.000          90.000           -1.736e+01          -1.736e+01             106.416          -1.225e+02             171.486           4.000e+01     
 157.000          90.000           -1.693e+01          -1.693e+01             107.697          -1.227e+02             171.784           4.000e+01     
 158.000          90.000           -1.652e+01          -1.652e+01             108.885          -1.228e+02             172.093           4.000e+01     
 159.000          90.000           -1.613e+01          -1.613e+01             109.994          -1.230e+02             172.412           4.000e+01     
 160.000          90.000           -1.577e+01          -1.577e+01             111.035          -1.232e+02             172.742           4.000e+01     
 161.000          90.000           -1.542e+01          -1.542e+01             112.016          -1.233e+02             173.086           4.000e+01     
 162.000          90.000           -1.510e+01          -1.510e+01             112.945          -1.235e+02             173.442           4.000e+01     
 163.000          90.000           -1.479e+01          -1.479e+01             113.828          -1.237e+02             173.813           4.000e+01     
 164.000          90.000           -1.449e+01          -1.449e+01             114.672          -1.239e+02             174.201           4.000e+01     
 165.000          90.000           -1.422e+01          -1.422e+01             115.480          -1.241e+02             174.605           4.000e+01     
 166.000          90.000           -1.395e+01          -1.395e+01             116.257          -1.243e+02             175.028           4.000e+01     
 167.000          90.000           -1.371e+01          -1.371e+01             117.006          -1.245e+02             175.472           4.000e+01     
 168.000          90.000           -1.347e+01          -1.347e+01             117.731          -1.248e+02             175.939           4.000e+01     
 169.000          90.000           -1.325e+01          -1.325e+01             118.434          -1.250e+02             176.431           4.000e+01     
 170.000          90.000           -1.304e+01          -1.304e+01             119.118          -1.253e+02             176.950           4.000e+01     
 171.000          90.000           -1.284e+01          -1.284e+01             119.785          -1.256e+02             177.500           4.000e+01     
 172.000          90.000           -1.265e+01          -1.265e+01             120.437          -1.258e+02             178.084           4.000e+01     
 173.000          90.000           -1.248e+01          -1.248e+01             121.076          -1.261e+02             178.705           4.000e+01     
 174.000          90.000           -1.231e+01          -1.231e+01             121.703          -1.264e+02             179.368           4.000e+01     
 175.000          90.000           -1.216e+01          -1.216e+01             122.320          -1.268e+02             180.078           4.000e+01     
 176.000          90.000           -1.201e+01          -1.201e+01             122.929          -1.271e+02             180.840           4.000e+01     
 177.000          90.000           -1.188e+01          -1.188e+01             123.531          -1.274e+02             181.660           4.000e+01     
 178.000          90.000           -1.175e+01          -1.175e+01             124.126          -1.278e+02             182.547           4.000e+01     
 179.000          90.000           -1.164e+01          -1.164e+01             124.717          -1.282e+02             183.508           4.000e+01     
 180.000          90.000           -1.153e+01          -1.153e+01             125.305          -1.286e+02             184.552           4.000e+01     
 179.000         270.000           -1.143e+01          -1.143e+01             305.890          -1.290e+02               5.693           4.000e+01     
 178.000         270.000           -1.134e+01          -1.134e+01             306.473          -1.294e+02               6.942           4.000e+01     
 177.000         270.000           -1.126e+01          -1.126e+01             307.057          -1.298e+02               8.316           4.000e+01     
 176.000         270.000           -1.119e+01          -1.119e+01             307.641          -1.303e+02               9.832           4.000e+01     
 175.000         270.000           -1.112e+01          -1.112e+01             308.227          -1.308e+02              11.510           4.000e+01     
 174.000         270.000           -1.107e+01          -1.107e+01             308.816          -1.313e+02              13.374           4.000e+01     
 173.000         270.000           -1.102e+01          -1.102e+01             309.408          -1.318e+02              15.452           4.000e+01     
 172.000         270.000           -1.098e+01          -1.098e+01             310.006          -1.323e+02              17.776           4.000e+01     
 171.000         270.000           -1.095e+01          -1.095e+01             310.609          -1.328e+02              20.379           4.000e+01     
 170.000         270.000           -1.093e+01          -1.093e+01             311.220          -1.334e+02              23.301           4.000e+01     
 169.000         270.000           -1.091e+01          -1.091e+01             311.838          -1.339e+02              26.583           4.000e+01     
 168.000         270.000           -1.090e+01          -1.090e+01             312.467          -1.345e+02              30.263           4.000e+01     
 167.000         270.000           -1.090e+01          -1.090e+01             313.105          -1.350e+02              34.379           4.000e+01     
 166.000         270.000           -1.091e+01          -1.091e+01             313.755          -1.355e+02              38.952           4.000e+01     
 165.000         270.000           -1.092e+01          -1.092e+01             314.419          -1.360e+02              43.988           4.000e+01     
 164.000         270.000           -1.095e+01          -1.095e+01             315.097          -1.364e+02              49.459           4.000e+01     
 163.000         270.000           -1.098e+01          -1.098e+01             315.791          -1.367e+02              55.299           4.000e+01     
 162.000         270.000           -1.101e+01          -1.101e+01             316.502          -1.369e+02              61.400           4.000e+01     
 161.000         270.000           -1.106e+01          -1.106e+01             317.233          -1.370e+02              67.620           4.000e+01     
 160.000         270.000           -1.111e+01          -1.111e+01             317.984          -1.370e+02              73.796           4.000e+01     
 159.000         270.000           -1.117e+01          -1.117e+01             318.758          -1.369e+02              79.773           4.000e+01     
 158.000         270.000           -1.124e+01          -1.124e+01             319.556          -1.367e+02              85.419           4.000e+01     
 157.000         270.000           -1.131e+01          -1.131e+01             320.381          -1.365e+02              90.643           4.000e+01     
 156.000         270.000           -1.139e+01          -1.139e+01             321.235          -1.362e+02              95.396           4.000e+01     
 155.000         270.000           -1.148e+01          -1.148e+01             322.120          -1.358e+02              99.664           4.000e+01     
 154.000         270.000           -1.157e+01          -1.157e+01             323.039          -1.355e+02             103.460           4.000e+01     
 153.000         270.000           -1.167e+01          -1.167e+01             323.994          -1.351e+02             106.813           4.000e+01     
 152.000         270.000           -1.178e+01          -1.178e+01             324.989          -1.347e+02             109.761           4.000e+01     
 151.000         270.000           -1.190e+01          -1.190e+01             326.025          -1.344e+02             112.344           4.000e+01     
 150.000         270.000           -1.202e+01          -1.202e+01             327.108          -1.340e+02             114.603           4.000e+01     
 149.000         270.000           -1.215e+01          -1.215e+01             328.239          -1.336e+02             116.573           4.000e+01     
 148.000         270.000           -1.228e+01          -1.228e+01             329.423          -1.333e+02             118.290           4.000e+01     
 147.000         270.000           -1.242e+01          -1.242e+01             330.663          -1.330e+02             119.782           4.000e+01     
 146.000         270.000           -1.256e+01          -1.256e+01             331.965          -1.327e+02             121.075           4.000e+01     
 145.000         270.000           -1.271e+01          -1.271e+01             333.331          -1.324e+02             122.192           4.000e+01     
 144.000         270.000           -1.287e+01          -1.287e+01             334.767          -1.321e+02             123.151           4.000e+01     
 143.000         270.000           -1.303e+01          -1.303e+01             336.277          -1.319e+02             123.969           4.000e+01     
 142.000         270.000           -1.319e+01          -1.319e+01             337.866          -1.316e+02             124.660           4.000e+01     
 141.000         270.000           -1.335e+01          -1.335e+01             339.539          -1.314e+02             125.237           4.000e+01     
 140.000         270.000           -1.352e+01          -1.352e+01             341.300          -1.312e+02             125.709           4.000e+01     
 139.000         270.000           -1.368e+01          -1.368e+01             343.155          -1.310e+02             126.086           4.000e+01     
 138.000         270.000           -1.385e+01          -1.385e+01             345.108          -1.308e+02             126.375           4.000e+01     
 137.000         270.000           -1.401e+01          -1.401e+01             347.163          -1.307e+02             126.583           4.000e+01     
 136.000         270.000           -1.417e+01          -1.417e+01             349.322          -1.305e+02             126.715           4.000e+01     
 135.000         270.000           -1.433e+01          -1.433e+01             351.590          -1.304e+02             126.776           4.000e+01     
 134.000         270.000           -1.448e+01          -1.448e+01             353.966          -1.303e+02             126.770           4.000e+01     
 133.000         270.000           -1.462e+01          -1.462e+01             356.452          -1.301e+02             126.701           4.000e+01     
 132.000         270.000           -1.475e+01          -1.475e+01             359.044          -1.300e+02             126.572           4.000e+01     
 131.000         270.000           -1.486e+01          -1.486e+01               1.740          -1.299e+02             126.384           4.000e+01     
 130.000         270.000           -1.496e+01          -1.496e+01               4.534          -1.299e+02             126.140           4.000e+01     
 129.000         270.000           -1.505e+01          -1.505e+01               7.417          -1.298e+02             125.842           4.000e+01     
 128.000         270.000           -1.511e+01          -1.511e+01              10.378          -1.297e+02             125.490           4.000e+01     
 127.000         270.000           -1.515e+01          -1.515e+01              13.405          -1.297e+02             125.087           4.000e+01     
 126.000         270.000           -1.517e+01          -1.517e+01              16.481          -1.296e+02             124.633           4.000e+01     
 125.000         270.000           -1.517e+01          -1.517e+01              19.590          -1.296e+02             124.128           4.000e+01     
 124.000         270.000           -1.514e+01          -1.514e+01              22.714          -1.295e+02             123.574           4.000e+01     
 123.000         270.000           -1.508e+01          -1.508e+01              25.833          -1.295e+02             122.968           4.000e+01     
 122.000         270.000           -1.501e+01          -1.501e+01              28.929          -1.295e+02             122.313           4.000e+01     
 121.000         270.000           -1.490e+01          -1.490e+01              31.982          -1.295e+02             121.607           4.000e+01     
 120.000         270.000           -1.478e+01          -1.478e+01              34.977          -1.295e+02             120.850           4.000e+01     
 119.000         270.000           -1.463e+01          -1.463e+01              37.899          -1.295e+02             120.042           4.000e+01     
 118.000         270.000           -1.446e+01          -1.446e+01              40.733          -1.295e+02             119.181           4.000e+01     
 117.000         270.000           -1.428e+01          -1.428e+01              43.470          -1.295e+02             118.267           4.000e+01     
 116.000         270.000           -1.408e+01          -1.408e+01              46.102          -1.295e+02             117.299           4.000e+01     
 115.000         270.000           -1.386e+01          -1.386e+01              48.623          -1.295e+02             116.277           4.000e+01     
 114.000         270.000           -1.363e+01          -1.363e+01              51.029          -1.296e+02             115.198           4.000e+01     
 113.000         270.000           -1.340e+01          -1.340e+01              53.320          -1.296e+02             114.062           4.000e+01     
 112.000         270.000           -1.315e+01          -1.315e+01              55.495          -1.296e+02             112.867           4.000e+01     
 111.000         270.000           -1.290e+01          -1.290e+01              57.555          -1.297e+02             111.614           4.000e+01     
 110.000         270.000           -1.265e+01          -1.265e+01              59.504          -1.297e+02             110.299           4.000e+01     
 109.000         270.000           -1.239e+01          -1.239e+01              61.344          -1.297e+02             108.924           4.000e+01     
 108.000         270.000           -1.212e+01          -1.212e+01              63.080          -1.298e+02             107.485           4.000e+01     
 107.000         270.000           -1.186e+01          -1.186e+01              64.717          -1.298e+02             105.984           4.000e+01     
 106.000         270.000           -1.160e+01          -1.160e+01              66.258          -1.299e+02             104.419           4.000e+01     
 105.000         270.000           -1.134e+01          -1.134e+01              67.709          -1.299e+02             102.790           4.000e+01     
 104.000         270.000           -1.107e+01          -1.107e+01              69.075          -1.299e+02             101.098           4.000e+01     
 103.000         270.000           -1.081e+01          -1.081e+01              70.360          -1.300e+02              99.342           4.000e+01     
 102.000         270.000           -1.055e+01          -1.055e+01              71.569          -1.300e+02              97.523           4.000e+01     
 101.000         270.000           -1.030e+01          -1.030e+01              72.707          -1.300e+02              95.644           4.000e+01     
 100.000         270.000           -1.004e+01          -1.004e+01              73.778          -1.300e+02              93.705           4.000e+01     
  99.000         270.000           -9.792e+00          -9.792e+00              74.785          -1.301e+02              91.710           4.000e+01     
  98.000         270.000           -9.544e+00          -9.544e+00              75.733          -1.301e+02              89.662           4.000e+01     
  97.000         270.000           -9.299e+00          -9.299e+00              76.625          -1.301e+02              87.564           4.000e+01     
  96.000         270.000           -9.057e+00          -9.057e+00              77.465          -1.301e+02              85.421           4.000e+01     
  95.000         270.000           -8.818e+00          -8.818e+00              78.257          -1.301e+02              83.238           4.000e+01     
  94.000         270.000           -8.583e+00          -8.583e+00              79.002          -1.300e+02              81.021           4.000e+01     
  93.000         270.000           -8.351e+00          -8.351e+00              79.704          -1.300e+02              78.776           4.000e+01     
  92.000         270.000           -8.122e+00          -8.122e+00              80.365          -1.299e+02              76.510           4.000e+01     
  91.000         270.000           -7.897e+00          -7.897e+00              80.988          -1.299e+02              74.229           4.000e+01     
  90.000         270.000           -7.675e+00          -7.675e+00              81.576          -1.298e+02              71.941           4.000e+01     
  89.000         270.000           -7.456e+00          -7.456e+00              82.129          -1.297e+02              69.654           4.000e+01     
  88.000         270.000           -7.240e+00          -7.240e+00              82.651          -1.296e+02              67.375           4.000e+01     
  87.000         270.000           -7.027e+00          -7.027e+00              83.143          -1.295e+02              65.110           4.000e+01     
  86.000         270.000           -6.817e+00          -6.817e+00              83.607          -1.294e+02              62.867           4.000e+01     
  85.000         270.000           -6.610e+00          -6.610e+00              84.045          -1.293e+02              60.652           4.000e+01     
  84.000         270.000           -6.406e+00          -6.406e+00              84.457          -1.292e+02              58.471           4.000e+01     
  83.000         270.000           -6.205e+00          -6.205e+00              84.846          -1.290e+02              56.330           4.000e+01     
  82.000         270.000           -6.007e+00          -6.007e+00              85.213          -1.289e+02              54.233           4.000e+01     
  81.000         270.000           -5.812e+00          -5.812e+00              85.558          -1.287e+02              52.184           4.000e+01     
  80.000         270.000           -5.619e+00          -5.619e+00              85.884          -1.286e+02              50.187           4.000e+01     
  79.000         270.000           -5.428e+00          -5.428e+00              86.191          -1.284e+02              48.244           4.000e+01     
  78.000         270.000           -5.241e+00          -5.241e+00              86.480          -1.282e+02              46.357           4.000e+01     
  77.000         270.000           -5.055e+00          -5.055e+00              86.753          -1.281e+02              44.528           4.000e+01     
  76.000         270.000           -4.873e+00          -4.873e+00              87.009          -1.279e+02              42.758           4.000e+01     
  75.000         270.000           -4.692e+00          -4.692e+00              87.251          -1.277e+02              41.047           4.000e+01     
  74.000         270.000           -4.514e+00          -4.514e+00              87.478          -1.275e+02              39.395           4.000e+01     
  73.000         270.000           -4.339e+00          -4.339e+00              87.692          -1.273e+02              37.802           4.000e+01     
  72.000         270.000           -4.165e+00          -4.165e+00              87.894          -1.271e+02              36.266           4.000e+01     
  71.000         270.000           -3.994e+00          -3.994e+00              88.083          -1.269e+02              34.788           4.000e+01     
  70.000         270.000           -3.825e+00          -3.825e+00              88.261          -1.268e+02              33.366           4.000e+01     
  69.000         270.000           -3.658e+00          -3.658e+00              88.428          -1.266e+02              31.998           4.000e+01     
  68.000         270.000           -3.494e+00          -3.494e+00              88.585          -1.264e+02              30.683           4.000e+01     
  67.000         270.000           -3.331e+00          -3.331e+00              88.732          -1.262e+02              29.419           4.000e+01     
  66.000         270.000           -3.171e+00          -3.171e+00              88.871          -1.260e+02              28.205           4.000e+01     
  65.000         270.000           -3.012e+00          -3.012e+00              89.000          -1.259e+02              27.039           4.000e+01     
  64.000         270.000           -2.856e+00          -2.856e+00              89.122          -1.257e+02              25.919           4.000e+01     
  63.000         270.000           -2.702e+00          -2.702e+00              89.235          -1.255e+02              24.843           4.000e+01     
  62.000         270.000           -2.549e+00          -2.549e+00              89.342          -1.254e+02              23.809           4.000e+01     
  61.000         270.000           -2.399e+00          -2.399e+00              89.442          -1.252e+02              22.817           4.000e+01     
  60.000         270.000           -2.251e+00          -2.251e+00              89.535          -1.250e+02              21.863           4.000e+01     
  59.000         270.000           -2.105e+00          -2.105e+00              89.622          -1.249e+02              20.947           4.000e+01     
  58.000         270.000           -1.960e+00          -1.960e+00              89.703          -1.247e+02              20.068           4.000e+01     
  57.000         270.000           -1.818e+00          -1.818e+00              89.779          -1.246e+02              19.222           4.000e+01     
  56.000         270.000           -1.678e+00          -1.678e+00              89.850          -1.245e+02              18.410           4.000e+01     
  55.000         270.000           -1.540e+00          -1.540e+00              89.915          -1.243e+02              17.629           4.000e+01     
  54.000         270.000           -1.404e+00          -1.404e+00              89.977          -1.242e+02              16.879           4.000e+01     
  53.000         270.000           -1.270e+00          -1.270e+00              90.034          -1.241e+02              16.158           4.000e+01     
  52.000         270.000           -1.137e+00          -1.137e+00              90.088          -1.240e+02              15.464           4.000e+01     
  51.000         270.000           -1.007e+00          -1.007e+00              90.137          -1.239e+02              14.798           4.000e+01     
  50.000         270.000           -8.793e-01          -8.793e-01              90.183          -1.238e+02              14.157           4.000e+01     
  49.000         270.000           -7.533e-01          -7.533e-01              90.226          -1.237e+02              13.541           4.000e+01     
  48.000         270.000           -6.293e-01          -6.293e-01              90.266          -1.236e+02              12.948           4.000e+01     
  47.000         270.000           -5.074e-01          -5.074e-01              90.304          -1.235e+02              12.378           4.000e+01     
  46.000         270.000           -3.877e-01          -3.877e-01              90.338          -1.234e+02              11.829           4.000e+01     
  45.000         270.000           -2.700e-01          -2.700e-01              90.371          -1.233e+02              11.302           4.000e+01     
  44.000         270.000           -1.544e-01          -1.544e-01              90.401          -1.233e+02              10.795           4.000e+01     
  43.000         270.000           -4.101e-02          -4.101e-02              90.429          -1.232e+02              10.308           4.000e+01     
  42.000         270.000            7.025e-02           7.025e-02              90.456          -1.231e+02               9.839           4.000e+01     
  41.000         270.000            1.793e-01           1.793e-01              90.481          -1.231e+02               9.389           4.000e+01     
  40.000         270.000            2.862e-01           2.862e-01              90.504          -1.231e+02               8.957           4.000e+01     
  39.000         270.000            3.909e-01           3.909e-01              90.526          -1.230e+02               8.542           4.000e+01     
  38.000         270.000            4.933e-01           4.933e-01              90.547          -1.230e+02               8.143           4.000e+01     
  37.000         270.000            5.935e-01           5.935e-01              90.567          -1.230e+02               7.761           4.000e+01     
  36.000         270.000            6.914e-01           6.914e-01              90.586          -1.230e+02               7.395           4.000e+01     
  35.000         270.000            7.870e-01           7.870e-01              90.604          -1.229e+02               7.044           4.000e+01     
  34.000         270.000            8.803e-01           8.803e-01              90.622          -1.229e+02               6.708           4.000e+01     
  33.000         270.000            9.713e-01           9.713e-01              90.639          -1.230e+02               6.387           4.000e+01     
  32.000         270.000            1.060e+00           1.060e+00              90.656          -1.230e+02               6.080           4.000e+01     
  31.000         270.000            1.146e+00           1.146e+00              90.673          -1.230e+02               5.788           4.000e+01     
  30.000         270.000            1.230e+00           1.230e+00              90.689          -1.230e+02               5.510           4.000e+01     
  29.000         270.000            1.311e+00           1.311e+00              90.706          -1.230e+02               5.245           4.000e+01     
  28.000         270.000            1.390e+00           1.390e+00              90.722          -1.231e+02               4.995           4.000e+01     
  27.000         270.000            1.467e+00           1.467e+00              90.738          -1.231e+02               4.758           4.000e+01     
  26.000         270.000            1.541e+00           1.541e+00              90.755          -1.232e+02               4.535           4.000e+01     
  25.000         270.000            1.612e+00           1.612e+00              90.772          -1.233e+02               4.325           4.000e+01     
  24.000         270.000            1.681e+00           1.681e+00              90.790          -1.233e+02               4.129           4.000e+01     
  23.000         270.000            1.748e+00           1.748e+00              90.808          -1.234e+02               3.946           4.000e+01     
  22.000         270.000            1.812e+00           1.812e+00              90.826          -1.235e+02               3.777           4.000e+01     
  21.000         270.000            1.873e+00           1.873e+00              90.845          -1.236e+02               3.622           4.000e+01     
  20.000         270.000            1.932e+00           1.932e+00              90.865          -1.237e+02               3.480           4.000e+01     
  19.000         270.000            1.988e+00           1.988e+00              90.885          -1.238e+02               3.353           4.000e+01     
  18.000         270.000            2.041e+00           2.041e+00              90.906          -1.239e+02               3.240           4.000e+01     
  17.000         270.000            2.092e+00           2.092e+00              90.929          -1.241e+02               3.141           4.000e+01     
  16.000         270.000            2.140e+00           2.140e+00              90.952          -1.242e+02               3.057           4.000e+01     
  15.000         270.000            2.186e+00           2.186e+00              90.976          -1.244e+02               2.989           4.000e+01     
  14.000         270.000            2.229e+00           2.229e+00              91.001          -1.245e+02               2.936           4.000e+01     
  13.000         270.000            2.269e+00           2.269e+00              91.027          -1.247e+02               2.899           4.000e+01     
  12.000         270.000            2.306e+00           2.306e+00              91.054          -1.249e+02               2.879           4.000e+01     
  11.000         270.000            2.341e+00           2.341e+00              91.082          -1.250e+02               2.876           4.000e+01     
  10.000         270.000            2.372e+00           2.372e+00              91.112          -1.252e+02               2.891           4.000e+01     
   9.000         270.000            2.402e+00           2.402e+00              91.143          -1.254e+02               2.925           4.000e+01     
   8.000         270.000            2.428e+00           2.428e+00              91.175          -1.256e+02               2.978           4.000e+01     
   7.000         270.000            2.451e+00           2.451e+00              91.208          -1.259e+02               3.052           4.000e+01     
   6.000         270.000            2.472e+00           2.472e+00              91.243          -1.261e+02               3.147           4.000e+01     
   5.000         270.000            2.490e+00           2.490e+00              91.279          -1.263e+02               3.265           4.000e+01     
   4.000         270.000            2.505e+00           2.505e+00              91.317          -1.266e+02               3.407           4.000e+01     
   3.000         270.000            2.517e+00           2.517e+00              91.355          -1.269e+02               3.575           4.000e+01     
   2.000         270.000            2.527e+00           2.527e+00              91.396          -1.271e+02               3.769           4.000e+01     
   1.000         270.000            2.533e+00           2.533e+00              91.438          -1.274e+02               3.993           4.000e+01     
