Theta [deg.]  Phi   [deg.]  Abs(Gain)[dBi   ]   Abs(Theta)[dBi   ]  Phase(Theta)[deg.]  Abs(Phi  )[dBi   ]  Phase(Phi  )[deg.]  Ax.Ratio[dB    ]    
------------------------------------------------------------------------------------------------------------------------------------------------------
   0.000          90.000            2.649e+00           2.649e+00             156.768          -1.331e+02              36.072           4.000e+01     
   1.000          90.000            2.655e+00           2.655e+00             156.814          -1.334e+02              35.199           4.000e+01     
   2.000          90.000            2.658e+00           2.658e+00             156.861          -1.338e+02              34.274           4.000e+01     
   3.000          90.000            2.658e+00           2.658e+00             156.908          -1.342e+02              33.292           4.000e+01     
   4.000          90.000            2.656e+00           2.656e+00             156.957          -1.347e+02              32.242           4.000e+01     
   5.000          90.000            2.651e+00           2.651e+00             157.006          -1.351e+02              31.112           4.000e+01     
   6.000          90.000            2.642e+00           2.642e+00             157.057          -1.356e+02              29.889           4.000e+01     
   7.000          90.000            2.631e+00           2.631e+00             157.109          -1.361e+02              28.556           4.000e+01     
   8.000          90.000            2.617e+00           2.617e+00             157.162          -1.366e+02              27.092           4.000e+01     
   9.000          90.000            2.601e+00           2.601e+00             157.216          -1.371e+02              25.475           4.000e+01     
  10.000          90.000            2.581e+00           2.581e+00             157.271          -1.377e+02              23.675           4.000e+01     
  11.000          90.000            2.559e+00           2.559e+00             157.328          -1.383e+02              21.658           4.000e+01     
  12.000          90.000            2.534e+00           2.534e+00             157.385          -1.389e+02              19.382           4.000e+01     
  13.000          90.000            2.506e+00           2.506e+00             157.444          -1.396e+02              16.797           4.000e+01     
  14.000          90.000            2.476e+00           2.476e+00             157.504          -1.402e+02              13.847           4.000e+01     
  15.000          90.000            2.442e+00           2.442e+00             157.565          -1.409e+02              10.462           4.000e+01     
  16.000          90.000            2.406e+00           2.406e+00             157.628          -1.416e+02               6.569           4.000e+01     
  17.000          90.000            2.367e+00           2.367e+00             157.692          -1.423e+02               2.092           4.000e+01     
  18.000          90.000            2.325e+00           2.325e+00             157.756          -1.429e+02             356.961           4.000e+01     
  19.000          90.000            2.280e+00           2.280e+00             157.823          -1.436e+02             351.136           4.000e+01     
  20.000          90.000            2.233e+00           2.233e+00             157.890          -1.441e+02             344.627           4.000e+01     
  21.000          90.000            2.183e+00           2.183e+00             157.959          -1.445e+02             337.526           4.000e+01     
  22.000          90.000            2.130e+00           2.130e+00             158.029          -1.448e+02             330.023           4.000e+01     
  23.000          90.000            2.074e+00           2.074e+00             158.101          -1.449e+02             322.389           4.000e+01     
  24.000          90.000            2.016e+00           2.016e+00             158.174          -1.449e+02             314.931           4.000e+01     
  25.000          90.000            1.954e+00           1.954e+00             158.248          -1.447e+02             307.925           4.000e+01     
  26.000          90.000            1.891e+00           1.891e+00             158.324          -1.444e+02             301.565           4.000e+01     
  27.000          90.000            1.824e+00           1.824e+00             158.401          -1.440e+02             295.949           4.000e+01     
  28.000          90.000            1.755e+00           1.755e+00             158.479          -1.435e+02             291.092           4.000e+01     
  29.000          90.000            1.682e+00           1.682e+00             158.559          -1.431e+02             286.955           4.000e+01     
  30.000          90.000            1.608e+00           1.608e+00             158.640          -1.426e+02             283.472           4.000e+01     
  31.000          90.000            1.530e+00           1.530e+00             158.723          -1.422e+02             280.567           4.000e+01     
  32.000          90.000            1.450e+00           1.450e+00             158.807          -1.417e+02             278.166           4.000e+01     
  33.000          90.000            1.367e+00           1.367e+00             158.893          -1.413e+02             276.204           4.000e+01     
  34.000          90.000            1.282e+00           1.282e+00             158.981          -1.409e+02             274.623           4.000e+01     
  35.000          90.000            1.194e+00           1.194e+00             159.070          -1.405e+02             273.374           4.000e+01     
  36.000          90.000            1.103e+00           1.103e+00             159.160          -1.402e+02             272.416           4.000e+01     
  37.000          90.000            1.010e+00           1.010e+00             159.253          -1.398e+02             271.718           4.000e+01     
  38.000          90.000            9.139e-01           9.139e-01             159.347          -1.395e+02             271.250           4.000e+01     
  39.000          90.000            8.153e-01           8.153e-01             159.442          -1.392e+02             270.992           4.000e+01     
  40.000          90.000            7.141e-01           7.141e-01             159.539          -1.390e+02             270.924           4.000e+01     
  41.000          90.000            6.103e-01           6.103e-01             159.638          -1.387e+02             271.031           4.000e+01     
  42.000          90.000            5.040e-01           5.040e-01             159.739          -1.385e+02             271.301           4.000e+01     
  43.000          90.000            3.951e-01           3.951e-01             159.842          -1.383e+02             271.724           4.000e+01     
  44.000          90.000            2.836e-01           2.836e-01             159.946          -1.381e+02             272.289           4.000e+01     
  45.000          90.000            1.695e-01           1.695e-01             160.053          -1.379e+02             272.990           4.000e+01     
  46.000          90.000            5.291e-02           5.291e-02             160.161          -1.377e+02             273.819           4.000e+01     
  47.000          90.000           -6.624e-02          -6.624e-02             160.271          -1.375e+02             274.771           4.000e+01     
  48.000          90.000           -1.879e-01          -1.879e-01             160.383          -1.373e+02             275.840           4.000e+01     
  49.000          90.000           -3.122e-01          -3.122e-01             160.497          -1.372e+02             277.019           4.000e+01     
  50.000          90.000           -4.389e-01          -4.389e-01             160.613          -1.370e+02             278.303           4.000e+01     
  51.000          90.000           -5.682e-01          -5.682e-01             160.732          -1.369e+02             279.686           4.000e+01     
  52.000          90.000           -7.000e-01          -7.000e-01             160.852          -1.367e+02             281.162           4.000e+01     
  53.000          90.000           -8.344e-01          -8.344e-01             160.975          -1.366e+02             282.723           4.000e+01     
  54.000          90.000           -9.713e-01          -9.713e-01             161.100          -1.364e+02             284.363           4.000e+01     
  55.000          90.000           -1.111e+00          -1.111e+00             161.227          -1.362e+02             286.073           4.000e+01     
  56.000          90.000           -1.253e+00          -1.253e+00             161.357          -1.361e+02             287.845           4.000e+01     
  57.000          90.000           -1.397e+00          -1.397e+00             161.489          -1.359e+02             289.670           4.000e+01     
  58.000          90.000           -1.544e+00          -1.544e+00             161.623          -1.357e+02             291.539           4.000e+01     
  59.000          90.000           -1.694e+00          -1.694e+00             161.760          -1.355e+02             293.442           4.000e+01     
  60.000          90.000           -1.846e+00          -1.846e+00             161.899          -1.353e+02             295.369           4.000e+01     
  61.000          90.000           -2.001e+00          -2.001e+00             162.041          -1.351e+02             297.310           4.000e+01     
  62.000          90.000           -2.158e+00          -2.158e+00             162.186          -1.349e+02             299.256           4.000e+01     
  63.000          90.000           -2.318e+00          -2.318e+00             162.333          -1.347e+02             301.197           4.000e+01     
  64.000          90.000           -2.481e+00          -2.481e+00             162.483          -1.345e+02             303.125           4.000e+01     
  65.000          90.000           -2.646e+00          -2.646e+00             162.636          -1.343e+02             305.031           4.000e+01     
  66.000          90.000           -2.814e+00          -2.814e+00             162.791          -1.340e+02             306.908           4.000e+01     
  67.000          90.000           -2.985e+00          -2.985e+00             162.950          -1.338e+02             308.749           4.000e+01     
  68.000          90.000           -3.158e+00          -3.158e+00             163.111          -1.335e+02             310.548           4.000e+01     
  69.000          90.000           -3.335e+00          -3.335e+00             163.276          -1.333e+02             312.301           4.000e+01     
  70.000          90.000           -3.514e+00          -3.514e+00             163.443          -1.330e+02             314.003           4.000e+01     
  71.000          90.000           -3.696e+00          -3.696e+00             163.614          -1.328e+02             315.652           4.000e+01     
  72.000          90.000           -3.881e+00          -3.881e+00             163.788          -1.325e+02             317.246           4.000e+01     
  73.000          90.000           -4.069e+00          -4.069e+00             163.965          -1.322e+02             318.782           4.000e+01     
  74.000          90.000           -4.260e+00          -4.260e+00             164.146          -1.320e+02             320.261           4.000e+01     
  75.000          90.000           -4.455e+00          -4.455e+00             164.329          -1.317e+02             321.681           4.000e+01     
  76.000          90.000           -4.652e+00          -4.652e+00             164.516          -1.314e+02             323.043           4.000e+01     
  77.000          90.000           -4.853e+00          -4.853e+00             164.707          -1.312e+02             324.348           4.000e+01     
  78.000          90.000           -5.058e+00          -5.058e+00             164.901          -1.309e+02             325.597           4.000e+01     
  79.000          90.000           -5.266e+00          -5.266e+00             165.098          -1.306e+02             326.792           4.000e+01     
  80.000          90.000           -5.477e+00          -5.477e+00             165.299          -1.304e+02             327.933           4.000e+01     
  81.000          90.000           -5.693e+00          -5.693e+00             165.504          -1.301e+02             329.023           4.000e+01     
  82.000          90.000           -5.912e+00          -5.912e+00             165.713          -1.299e+02             330.064           4.000e+01     
  83.000          90.000           -6.135e+00          -6.135e+00             165.925          -1.296e+02             331.057           4.000e+01     
  84.000          90.000           -6.363e+00          -6.363e+00             166.141          -1.294e+02             332.004           4.000e+01     
  85.000          90.000           -6.595e+00          -6.595e+00             166.361          -1.291e+02             332.909           4.000e+01     
  86.000          90.000           -6.832e+00          -6.832e+00             166.584          -1.289e+02             333.772           4.000e+01     
  87.000          90.000           -7.073e+00          -7.073e+00             166.812          -1.287e+02             334.596           4.000e+01     
  88.000          90.000           -7.319e+00          -7.319e+00             167.043          -1.285e+02             335.383           4.000e+01     
  89.000          90.000           -7.571e+00          -7.571e+00             167.279          -1.282e+02             336.135           4.000e+01     
  90.000          90.000           -7.828e+00          -7.828e+00             167.518          -1.280e+02             336.854           4.000e+01     
  91.000          90.000           -8.092e+00          -8.092e+00             167.762          -1.278e+02             337.541           4.000e+01     
  92.000          90.000           -8.361e+00          -8.361e+00             168.010          -1.276e+02             338.199           4.000e+01     
  93.000          90.000           -8.637e+00          -8.637e+00             168.262          -1.274e+02             338.829           4.000e+01     
  94.000          90.000           -8.920e+00          -8.920e+00             168.519          -1.272e+02             339.433           4.000e+01     
  95.000          90.000           -9.210e+00          -9.210e+00             168.780          -1.271e+02             340.012           4.000e+01     
  96.000          90.000           -9.507e+00          -9.507e+00             169.045          -1.269e+02             340.569           4.000e+01     
  97.000          90.000           -9.814e+00          -9.814e+00             169.315          -1.267e+02             341.104           4.000e+01     
  98.000          90.000           -1.013e+01          -1.013e+01             169.589          -1.265e+02             341.619           4.000e+01     
  99.000          90.000           -1.045e+01          -1.045e+01             169.868          -1.264e+02             342.116           4.000e+01     
 100.000          90.000           -1.079e+01          -1.079e+01             170.152          -1.262e+02             342.596           4.000e+01     
 101.000          90.000           -1.113e+01          -1.113e+01             170.441          -1.261e+02             343.059           4.000e+01     
 102.000          90.000           -1.149e+01          -1.149e+01             170.735          -1.260e+02             343.508           4.000e+01     
 103.000          90.000           -1.186e+01          -1.186e+01             171.035          -1.258e+02             343.943           4.000e+01     
 104.000          90.000           -1.225e+01          -1.225e+01             171.340          -1.257e+02             344.365           4.000e+01     
 105.000          90.000           -1.265e+01          -1.265e+01             171.651          -1.256e+02             344.777           4.000e+01     
 106.000          90.000           -1.306e+01          -1.306e+01             171.968          -1.255e+02             345.178           4.000e+01     
 107.000          90.000           -1.350e+01          -1.350e+01             172.292          -1.254e+02             345.570           4.000e+01     
 108.000          90.000           -1.395e+01          -1.395e+01             172.623          -1.252e+02             345.954           4.000e+01     
 109.000          90.000           -1.443e+01          -1.443e+01             172.962          -1.252e+02             346.331           4.000e+01     
 110.000          90.000           -1.493e+01          -1.493e+01             173.309          -1.251e+02             346.701           4.000e+01     
 111.000          90.000           -1.546e+01          -1.546e+01             173.667          -1.250e+02             347.067           4.000e+01     
 112.000          90.000           -1.603e+01          -1.603e+01             174.035          -1.249e+02             347.428           4.000e+01     
 113.000          90.000           -1.662e+01          -1.662e+01             174.416          -1.248e+02             347.786           4.000e+01     
 114.000          90.000           -1.726e+01          -1.726e+01             174.812          -1.248e+02             348.142           4.000e+01     
 115.000          90.000           -1.794e+01          -1.794e+01             175.225          -1.247e+02             348.496           4.000e+01     
 116.000          90.000           -1.868e+01          -1.868e+01             175.660          -1.247e+02             348.850           4.000e+01     
 117.000          90.000           -1.949e+01          -1.949e+01             176.125          -1.246e+02             349.205           4.000e+01     
 118.000          90.000           -2.037e+01          -2.037e+01             176.622          -1.246e+02             349.561           4.000e+01     
 119.000          90.000           -2.135e+01          -2.135e+01             177.166          -1.246e+02             349.921           4.000e+01     
 120.000          90.000           -2.244e+01          -2.244e+01             177.775          -1.245e+02             350.283           4.000e+01     
 121.000          90.000           -2.369e+01          -2.369e+01             178.476          -1.245e+02             350.651           4.000e+01     
 122.000          90.000           -2.514e+01          -2.514e+01             179.318          -1.245e+02             351.024           4.000e+01     
 123.000          90.000           -2.687e+01          -2.687e+01             180.393          -1.245e+02             351.405           4.000e+01     
 124.000          90.000           -2.902e+01          -2.902e+01             181.894          -1.245e+02             351.793           4.000e+01     
 125.000          90.000           -3.187e+01          -3.187e+01             184.309          -1.245e+02             352.191           4.000e+01     
 126.000          90.000           -3.606e+01          -3.606e+01             189.326          -1.245e+02             352.600           4.000e+01     
 127.000          90.000           -4.379e+01          -4.379e+01             208.426          -1.246e+02             353.021           4.000e+01     
 128.000          90.000           -4.533e+01          -4.533e+01             319.839          -1.246e+02             353.456           4.000e+01     
 129.000          90.000           -3.682e+01          -3.682e+01             344.755          -1.246e+02             353.906           4.000e+01     
 130.000          90.000           -3.240e+01          -3.240e+01             350.439          -1.247e+02             354.372           4.000e+01     
 131.000          90.000           -2.947e+01          -2.947e+01             353.049          -1.247e+02             354.858           4.000e+01     
 132.000          90.000           -2.729e+01          -2.729e+01             354.636          -1.248e+02             355.364           4.000e+01     
 133.000          90.000           -2.556e+01          -2.556e+01             355.759          -1.249e+02             355.893           4.000e+01     
 134.000          90.000           -2.412e+01          -2.412e+01             356.635          -1.249e+02             356.446           4.000e+01     
 135.000          90.000           -2.289e+01          -2.289e+01             357.362          -1.250e+02             357.027           4.000e+01     
 136.000          90.000           -2.181e+01          -2.181e+01             357.994          -1.251e+02             357.638           4.000e+01     
 137.000          90.000           -2.087e+01          -2.087e+01             358.560          -1.252e+02             358.281           4.000e+01     
 138.000          90.000           -2.001e+01          -2.001e+01             359.079          -1.253e+02             358.960           4.000e+01     
 139.000          90.000           -1.924e+01          -1.924e+01             359.564          -1.254e+02             359.678           4.000e+01     
 140.000          90.000           -1.854e+01          -1.854e+01               0.023          -1.256e+02               0.439           4.000e+01     
 141.000          90.000           -1.790e+01          -1.790e+01               0.461          -1.257e+02               1.247           4.000e+01     
 142.000          90.000           -1.730e+01          -1.730e+01               0.883          -1.259e+02               2.105           4.000e+01     
 143.000          90.000           -1.675e+01          -1.675e+01               1.292          -1.260e+02               3.020           4.000e+01     
 144.000          90.000           -1.623e+01          -1.623e+01               1.689          -1.262e+02               3.995           4.000e+01     
 145.000          90.000           -1.575e+01          -1.575e+01               2.078          -1.263e+02               5.037           4.000e+01     
 146.000          90.000           -1.529e+01          -1.529e+01               2.458          -1.265e+02               6.152           4.000e+01     
 147.000          90.000           -1.487e+01          -1.487e+01               2.832          -1.267e+02               7.347           4.000e+01     
 148.000          90.000           -1.446e+01          -1.446e+01               3.201          -1.269e+02               8.628           4.000e+01     
 149.000          90.000           -1.408e+01          -1.408e+01               3.564          -1.271e+02              10.005           4.000e+01     
 150.000          90.000           -1.372e+01          -1.372e+01               3.922          -1.273e+02              11.485           4.000e+01     
 151.000          90.000           -1.338e+01          -1.338e+01               4.277          -1.275e+02              13.077           4.000e+01     
 152.000          90.000           -1.306e+01          -1.306e+01               4.628          -1.278e+02              14.792           4.000e+01     
 153.000          90.000           -1.275e+01          -1.275e+01               4.975          -1.280e+02              16.640           4.000e+01     
 154.000          90.000           -1.245e+01          -1.245e+01               5.320          -1.282e+02              18.630           4.000e+01     
 155.000          90.000           -1.218e+01          -1.218e+01               5.662          -1.285e+02              20.772           4.000e+01     
 156.000          90.000           -1.191e+01          -1.191e+01               6.002          -1.287e+02              23.078           4.000e+01     
 157.000          90.000           -1.166e+01          -1.166e+01               6.339          -1.289e+02              25.555           4.000e+01     
 158.000          90.000           -1.141e+01          -1.141e+01               6.675          -1.291e+02              28.211           4.000e+01     
 159.000          90.000           -1.118e+01          -1.118e+01               7.008          -1.293e+02              31.050           4.000e+01     
 160.000          90.000           -1.096e+01          -1.096e+01               7.340          -1.295e+02              34.075           4.000e+01     
 161.000          90.000           -1.075e+01          -1.075e+01               7.671          -1.297e+02              37.282           4.000e+01     
 162.000          90.000           -1.055e+01          -1.055e+01               8.000          -1.299e+02              40.663           4.000e+01     
 163.000          90.000           -1.036e+01          -1.036e+01               8.328          -1.300e+02              44.203           4.000e+01     
 164.000          90.000           -1.018e+01          -1.018e+01               8.655          -1.301e+02              47.882           4.000e+01     
 165.000          90.000           -1.001e+01          -1.001e+01               8.981          -1.302e+02              51.671           4.000e+01     
 166.000          90.000           -9.843e+00          -9.843e+00               9.307          -1.302e+02              55.537           4.000e+01     
 167.000          90.000           -9.687e+00          -9.687e+00               9.632          -1.302e+02              59.442           4.000e+01     
 168.000          90.000           -9.539e+00          -9.539e+00               9.956          -1.301e+02              63.345           4.000e+01     
 169.000          90.000           -9.398e+00          -9.398e+00              10.280          -1.300e+02              67.206           4.000e+01     
 170.000          90.000           -9.265e+00          -9.265e+00              10.604          -1.299e+02              70.988           4.000e+01     
 171.000          90.000           -9.139e+00          -9.139e+00              10.929          -1.297e+02              74.656           4.000e+01     
 172.000          90.000           -9.021e+00          -9.021e+00              11.253          -1.295e+02              78.182           4.000e+01     
 173.000          90.000           -8.909e+00          -8.909e+00              11.578          -1.293e+02              81.545           4.000e+01     
 174.000          90.000           -8.804e+00          -8.804e+00              11.904          -1.290e+02              84.732           4.000e+01     
 175.000          90.000           -8.706e+00          -8.706e+00              12.230          -1.288e+02              87.732           4.000e+01     
 176.000          90.000           -8.615e+00          -8.615e+00              12.558          -1.285e+02              90.544           4.000e+01     
 177.000          90.000           -8.530e+00          -8.530e+00              12.887          -1.282e+02              93.169           4.000e+01     
 178.000          90.000           -8.452e+00          -8.452e+00              13.217          -1.279e+02              95.611           4.000e+01     
 179.000          90.000           -8.380e+00          -8.380e+00              13.549          -1.276e+02              97.877           4.000e+01     
 180.000          90.000           -8.314e+00          -8.314e+00              13.883          -1.273e+02              99.975           4.000e+01     
 179.000         270.000           -8.255e+00          -8.255e+00             194.220          -1.270e+02             281.919           4.000e+01     
 178.000         270.000           -8.202e+00          -8.202e+00             194.559          -1.267e+02             283.716           4.000e+01     
 177.000         270.000           -8.154e+00          -8.154e+00             194.901          -1.264e+02             285.376           4.000e+01     
 176.000         270.000           -8.113e+00          -8.113e+00             195.246          -1.261e+02             286.910           4.000e+01     
 175.000         270.000           -8.078e+00          -8.078e+00             195.595          -1.258e+02             288.328           4.000e+01     
 174.000         270.000           -8.049e+00          -8.049e+00             195.948          -1.255e+02             289.638           4.000e+01     
 173.000         270.000           -8.025e+00          -8.025e+00             196.305          -1.252e+02             290.848           4.000e+01     
 172.000         270.000           -8.008e+00          -8.008e+00             196.666          -1.249e+02             291.968           4.000e+01     
 171.000         270.000           -7.996e+00          -7.996e+00             197.033          -1.247e+02             293.003           4.000e+01     
 170.000         270.000           -7.991e+00          -7.991e+00             197.406          -1.244e+02             293.961           4.000e+01     
 169.000         270.000           -7.991e+00          -7.991e+00             197.785          -1.242e+02             294.847           4.000e+01     
 168.000         270.000           -7.996e+00          -7.996e+00             198.170          -1.240e+02             295.668           4.000e+01     
 167.000         270.000           -8.008e+00          -8.008e+00             198.562          -1.237e+02             296.429           4.000e+01     
 166.000         270.000           -8.026e+00          -8.026e+00             198.962          -1.235e+02             297.133           4.000e+01     
 165.000         270.000           -8.049e+00          -8.049e+00             199.370          -1.233e+02             297.786           4.000e+01     
 164.000         270.000           -8.078e+00          -8.078e+00             199.787          -1.231e+02             298.391           4.000e+01     
 163.000         270.000           -8.113e+00          -8.113e+00             200.214          -1.229e+02             298.952           4.000e+01     
 162.000         270.000           -8.153e+00          -8.153e+00             200.652          -1.227e+02             299.471           4.000e+01     
 161.000         270.000           -8.200e+00          -8.200e+00             201.100          -1.225e+02             299.952           4.000e+01     
 160.000         270.000           -8.252e+00          -8.252e+00             201.561          -1.224e+02             300.397           4.000e+01     
 159.000         270.000           -8.310e+00          -8.310e+00             202.034          -1.222e+02             300.810           4.000e+01     
 158.000         270.000           -8.374e+00          -8.374e+00             202.522          -1.220e+02             301.191           4.000e+01     
 157.000         270.000           -8.444e+00          -8.444e+00             203.024          -1.219e+02             301.543           4.000e+01     
 156.000         270.000           -8.520e+00          -8.520e+00             203.543          -1.218e+02             301.868           4.000e+01     
 155.000         270.000           -8.601e+00          -8.601e+00             204.079          -1.216e+02             302.168           4.000e+01     
 154.000         270.000           -8.689e+00          -8.689e+00             204.633          -1.215e+02             302.443           4.000e+01     
 153.000         270.000           -8.782e+00          -8.782e+00             205.208          -1.214e+02             302.696           4.000e+01     
 152.000         270.000           -8.882e+00          -8.882e+00             205.804          -1.212e+02             302.928           4.000e+01     
 151.000         270.000           -8.987e+00          -8.987e+00             206.423          -1.211e+02             303.139           4.000e+01     
 150.000         270.000           -9.098e+00          -9.098e+00             207.066          -1.210e+02             303.332           4.000e+01     
 149.000         270.000           -9.215e+00          -9.215e+00             207.737          -1.209e+02             303.507           4.000e+01     
 148.000         270.000           -9.339e+00          -9.339e+00             208.436          -1.208e+02             303.664           4.000e+01     
 147.000         270.000           -9.468e+00          -9.468e+00             209.166          -1.207e+02             303.805           4.000e+01     
 146.000         270.000           -9.603e+00          -9.603e+00             209.929          -1.207e+02             303.931           4.000e+01     
 145.000         270.000           -9.744e+00          -9.744e+00             210.728          -1.206e+02             304.042           4.000e+01     
 144.000         270.000           -9.891e+00          -9.891e+00             211.565          -1.205e+02             304.138           4.000e+01     
 143.000         270.000           -1.004e+01          -1.004e+01             212.444          -1.204e+02             304.221           4.000e+01     
 142.000         270.000           -1.020e+01          -1.020e+01             213.367          -1.204e+02             304.291           4.000e+01     
 141.000         270.000           -1.037e+01          -1.037e+01             214.338          -1.203e+02             304.348           4.000e+01     
 140.000         270.000           -1.054e+01          -1.054e+01             215.360          -1.203e+02             304.393           4.000e+01     
 139.000         270.000           -1.071e+01          -1.071e+01             216.438          -1.202e+02             304.426           4.000e+01     
 138.000         270.000           -1.089e+01          -1.089e+01             217.575          -1.202e+02             304.447           4.000e+01     
 137.000         270.000           -1.107e+01          -1.107e+01             218.777          -1.201e+02             304.458           4.000e+01     
 136.000         270.000           -1.126e+01          -1.126e+01             220.047          -1.201e+02             304.457           4.000e+01     
 135.000         270.000           -1.146e+01          -1.146e+01             221.391          -1.201e+02             304.446           4.000e+01     
 134.000         270.000           -1.165e+01          -1.165e+01             222.813          -1.200e+02             304.425           4.000e+01     
 133.000         270.000           -1.185e+01          -1.185e+01             224.320          -1.200e+02             304.393           4.000e+01     
 132.000         270.000           -1.205e+01          -1.205e+01             225.917          -1.200e+02             304.351           4.000e+01     
 131.000         270.000           -1.226e+01          -1.226e+01             227.609          -1.200e+02             304.300           4.000e+01     
 130.000         270.000           -1.246e+01          -1.246e+01             229.402          -1.200e+02             304.238           4.000e+01     
 129.000         270.000           -1.266e+01          -1.266e+01             231.302          -1.200e+02             304.166           4.000e+01     
 128.000         270.000           -1.286e+01          -1.286e+01             233.312          -1.200e+02             304.085           4.000e+01     
 127.000         270.000           -1.305e+01          -1.305e+01             235.438          -1.200e+02             303.995           4.000e+01     
 126.000         270.000           -1.324e+01          -1.324e+01             237.683          -1.200e+02             303.894           4.000e+01     
 125.000         270.000           -1.342e+01          -1.342e+01             240.049          -1.200e+02             303.784           4.000e+01     
 124.000         270.000           -1.359e+01          -1.359e+01             242.537          -1.200e+02             303.664           4.000e+01     
 123.000         270.000           -1.375e+01          -1.375e+01             245.145          -1.200e+02             303.534           4.000e+01     
 122.000         270.000           -1.390e+01          -1.390e+01             247.871          -1.200e+02             303.395           4.000e+01     
 121.000         270.000           -1.402e+01          -1.402e+01             250.707          -1.200e+02             303.246           4.000e+01     
 120.000         270.000           -1.413e+01          -1.413e+01             253.645          -1.201e+02             303.086           4.000e+01     
 119.000         270.000           -1.422e+01          -1.422e+01             256.673          -1.201e+02             302.917           4.000e+01     
 118.000         270.000           -1.428e+01          -1.428e+01             259.776          -1.201e+02             302.737           4.000e+01     
 117.000         270.000           -1.431e+01          -1.431e+01             262.936          -1.202e+02             302.547           4.000e+01     
 116.000         270.000           -1.432e+01          -1.432e+01             266.134          -1.202e+02             302.346           4.000e+01     
 115.000         270.000           -1.430e+01          -1.430e+01             269.348          -1.203e+02             302.134           4.000e+01     
 114.000         270.000           -1.425e+01          -1.425e+01             272.556          -1.203e+02             301.911           4.000e+01     
 113.000         270.000           -1.417e+01          -1.417e+01             275.736          -1.203e+02             301.678           4.000e+01     
 112.000         270.000           -1.407e+01          -1.407e+01             278.867          -1.204e+02             301.432           4.000e+01     
 111.000         270.000           -1.394e+01          -1.394e+01             281.930          -1.205e+02             301.175           4.000e+01     
 110.000         270.000           -1.378e+01          -1.378e+01             284.908          -1.205e+02             300.906           4.000e+01     
 109.000         270.000           -1.361e+01          -1.361e+01             287.787          -1.206e+02             300.625           4.000e+01     
 108.000         270.000           -1.341e+01          -1.341e+01             290.556          -1.206e+02             300.331           4.000e+01     
 107.000         270.000           -1.320e+01          -1.320e+01             293.207          -1.207e+02             300.025           4.000e+01     
 106.000         270.000           -1.297e+01          -1.297e+01             295.735          -1.208e+02             299.705           4.000e+01     
 105.000         270.000           -1.273e+01          -1.273e+01             298.137          -1.208e+02             299.372           4.000e+01     
 104.000         270.000           -1.248e+01          -1.248e+01             300.412          -1.209e+02             299.025           4.000e+01     
 103.000         270.000           -1.223e+01          -1.223e+01             302.561          -1.210e+02             298.664           4.000e+01     
 102.000         270.000           -1.196e+01          -1.196e+01             304.587          -1.211e+02             298.289           4.000e+01     
 101.000         270.000           -1.169e+01          -1.169e+01             306.495          -1.211e+02             297.899           4.000e+01     
 100.000         270.000           -1.142e+01          -1.142e+01             308.288          -1.212e+02             297.493           4.000e+01     
  99.000         270.000           -1.115e+01          -1.115e+01             309.971          -1.213e+02             297.072           4.000e+01     
  98.000         270.000           -1.087e+01          -1.087e+01             311.551          -1.214e+02             296.636           4.000e+01     
  97.000         270.000           -1.060e+01          -1.060e+01             313.032          -1.215e+02             296.183           4.000e+01     
  96.000         270.000           -1.033e+01          -1.033e+01             314.420          -1.215e+02             295.713           4.000e+01     
  95.000         270.000           -1.005e+01          -1.005e+01             315.722          -1.216e+02             295.227           4.000e+01     
  94.000         270.000           -9.783e+00          -9.783e+00             316.941          -1.217e+02             294.723           4.000e+01     
  93.000         270.000           -9.515e+00          -9.515e+00             318.084          -1.218e+02             294.202           4.000e+01     
  92.000         270.000           -9.250e+00          -9.250e+00             319.155          -1.219e+02             293.662           4.000e+01     
  91.000         270.000           -8.988e+00          -8.988e+00             320.159          -1.220e+02             293.105           4.000e+01     
  90.000         270.000           -8.729e+00          -8.729e+00             321.101          -1.221e+02             292.528           4.000e+01     
  89.000         270.000           -8.474e+00          -8.474e+00             321.984          -1.222e+02             291.933           4.000e+01     
  88.000         270.000           -8.222e+00          -8.222e+00             322.812          -1.223e+02             291.319           4.000e+01     
  87.000         270.000           -7.974e+00          -7.974e+00             323.589          -1.224e+02             290.686           4.000e+01     
  86.000         270.000           -7.729e+00          -7.729e+00             324.319          -1.225e+02             290.032           4.000e+01     
  85.000         270.000           -7.488e+00          -7.488e+00             325.004          -1.226e+02             289.359           4.000e+01     
  84.000         270.000           -7.251e+00          -7.251e+00             325.648          -1.227e+02             288.667           4.000e+01     
  83.000         270.000           -7.017e+00          -7.017e+00             326.252          -1.228e+02             287.954           4.000e+01     
  82.000         270.000           -6.787e+00          -6.787e+00             326.821          -1.229e+02             287.221           4.000e+01     
  81.000         270.000           -6.561e+00          -6.561e+00             327.355          -1.230e+02             286.468           4.000e+01     
  80.000         270.000           -6.338e+00          -6.338e+00             327.857          -1.231e+02             285.695           4.000e+01     
  79.000         270.000           -6.119e+00          -6.119e+00             328.330          -1.232e+02             284.902           4.000e+01     
  78.000         270.000           -5.903e+00          -5.903e+00             328.774          -1.233e+02             284.089           4.000e+01     
  77.000         270.000           -5.690e+00          -5.690e+00             329.193          -1.234e+02             283.257           4.000e+01     
  76.000         270.000           -5.481e+00          -5.481e+00             329.587          -1.235e+02             282.406           4.000e+01     
  75.000         270.000           -5.275e+00          -5.275e+00             329.957          -1.236e+02             281.535           4.000e+01     
  74.000         270.000           -5.072e+00          -5.072e+00             330.306          -1.237e+02             280.646           4.000e+01     
  73.000         270.000           -4.873e+00          -4.873e+00             330.635          -1.238e+02             279.739           4.000e+01     
  72.000         270.000           -4.676e+00          -4.676e+00             330.944          -1.239e+02             278.814           4.000e+01     
  71.000         270.000           -4.483e+00          -4.483e+00             331.236          -1.240e+02             277.873           4.000e+01     
  70.000         270.000           -4.292e+00          -4.292e+00             331.510          -1.241e+02             276.915           4.000e+01     
  69.000         270.000           -4.105e+00          -4.105e+00             331.769          -1.242e+02             275.942           4.000e+01     
  68.000         270.000           -3.920e+00          -3.920e+00             332.013          -1.243e+02             274.954           4.000e+01     
  67.000         270.000           -3.739e+00          -3.739e+00             332.242          -1.244e+02             273.952           4.000e+01     
  66.000         270.000           -3.560e+00          -3.560e+00             332.459          -1.245e+02             272.938           4.000e+01     
  65.000         270.000           -3.383e+00          -3.383e+00             332.663          -1.245e+02             271.913           4.000e+01     
  64.000         270.000           -3.210e+00          -3.210e+00             332.855          -1.246e+02             270.876           4.000e+01     
  63.000         270.000           -3.039e+00          -3.039e+00             333.036          -1.247e+02             269.831           4.000e+01     
  62.000         270.000           -2.871e+00          -2.871e+00             333.207          -1.248e+02             268.777           4.000e+01     
  61.000         270.000           -2.706e+00          -2.706e+00             333.368          -1.249e+02             267.716           4.000e+01     
  60.000         270.000           -2.543e+00          -2.543e+00             333.520          -1.249e+02             266.649           4.000e+01     
  59.000         270.000           -2.382e+00          -2.382e+00             333.663          -1.250e+02             265.578           4.000e+01     
  58.000         270.000           -2.224e+00          -2.224e+00             333.798          -1.251e+02             264.503           4.000e+01     
  57.000         270.000           -2.069e+00          -2.069e+00             333.925          -1.252e+02             263.427           4.000e+01     
  56.000         270.000           -1.916e+00          -1.916e+00             334.045          -1.252e+02             262.350           4.000e+01     
  55.000         270.000           -1.766e+00          -1.766e+00             334.158          -1.253e+02             261.273           4.000e+01     
  54.000         270.000           -1.618e+00          -1.618e+00             334.265          -1.254e+02             260.198           4.000e+01     
  53.000         270.000           -1.473e+00          -1.473e+00             334.366          -1.254e+02             259.127           4.000e+01     
  52.000         270.000           -1.330e+00          -1.330e+00             334.461          -1.255e+02             258.059           4.000e+01     
  51.000         270.000           -1.189e+00          -1.189e+00             334.551          -1.256e+02             256.997           4.000e+01     
  50.000         270.000           -1.051e+00          -1.051e+00             334.636          -1.256e+02             255.942           4.000e+01     
  49.000         270.000           -9.155e-01          -9.155e-01             334.717          -1.257e+02             254.894           4.000e+01     
  48.000         270.000           -7.823e-01          -7.823e-01             334.793          -1.258e+02             253.854           4.000e+01     
  47.000         270.000           -6.514e-01          -6.514e-01             334.865          -1.258e+02             252.824           4.000e+01     
  46.000         270.000           -5.230e-01          -5.230e-01             334.933          -1.259e+02             251.804           4.000e+01     
  45.000         270.000           -3.970e-01          -3.970e-01             334.998          -1.259e+02             250.796           4.000e+01     
  44.000         270.000           -2.734e-01          -2.734e-01             335.060          -1.260e+02             249.798           4.000e+01     
  43.000         270.000           -1.522e-01          -1.522e-01             335.118          -1.261e+02             248.814           4.000e+01     
  42.000         270.000           -3.347e-02          -3.347e-02             335.174          -1.261e+02             247.841           4.000e+01     
  41.000         270.000            8.286e-02           8.286e-02             335.227          -1.262e+02             246.883           4.000e+01     
  40.000         270.000            1.968e-01           1.968e-01             335.277          -1.263e+02             245.938           4.000e+01     
  39.000         270.000            3.082e-01           3.082e-01             335.326          -1.263e+02             245.007           4.000e+01     
  38.000         270.000            4.172e-01           4.172e-01             335.372          -1.264e+02             244.090           4.000e+01     
  37.000         270.000            5.238e-01           5.238e-01             335.417          -1.265e+02             243.188           4.000e+01     
  36.000         270.000            6.279e-01           6.279e-01             335.460          -1.265e+02             242.300           4.000e+01     
  35.000         270.000            7.296e-01           7.296e-01             335.501          -1.266e+02             241.427           4.000e+01     
  34.000         270.000            8.288e-01           8.288e-01             335.541          -1.267e+02             240.568           4.000e+01     
  33.000         270.000            9.254e-01           9.254e-01             335.579          -1.268e+02             239.724           4.000e+01     
  32.000         270.000            1.020e+00           1.020e+00             335.617          -1.269e+02             238.895           4.000e+01     
  31.000         270.000            1.111e+00           1.111e+00             335.653          -1.269e+02             238.079           4.000e+01     
  30.000         270.000            1.200e+00           1.200e+00             335.689          -1.270e+02             237.277           4.000e+01     
  29.000         270.000            1.287e+00           1.287e+00             335.724          -1.271e+02             236.489           4.000e+01     
  28.000         270.000            1.371e+00           1.371e+00             335.758          -1.272e+02             235.715           4.000e+01     
  27.000         270.000            1.453e+00           1.453e+00             335.792          -1.273e+02             234.953           4.000e+01     
  26.000         270.000            1.532e+00           1.532e+00             335.825          -1.274e+02             234.203           4.000e+01     
  25.000         270.000            1.608e+00           1.608e+00             335.858          -1.276e+02             233.466           4.000e+01     
  24.000         270.000            1.682e+00           1.682e+00             335.891          -1.277e+02             232.740           4.000e+01     
  23.000         270.000            1.753e+00           1.753e+00             335.923          -1.278e+02             232.024           4.000e+01     
  22.000         270.000            1.822e+00           1.822e+00             335.955          -1.279e+02             231.319           4.000e+01     
  21.000         270.000            1.888e+00           1.888e+00             335.988          -1.281e+02             230.623           4.000e+01     
  20.000         270.000            1.951e+00           1.951e+00             336.020          -1.282e+02             229.936           4.000e+01     
  19.000         270.000            2.012e+00           2.012e+00             336.053          -1.284e+02             229.257           4.000e+01     
  18.000         270.000            2.070e+00           2.070e+00             336.086          -1.285e+02             228.585           4.000e+01     
  17.000         270.000            2.125e+00           2.125e+00             336.119          -1.287e+02             227.919           4.000e+01     
  16.000         270.000            2.178e+00           2.178e+00             336.152          -1.289e+02             227.258           4.000e+01     
  15.000         270.000            2.228e+00           2.228e+00             336.186          -1.291e+02             226.601           4.000e+01     
  14.000         270.000            2.275e+00           2.275e+00             336.220          -1.293e+02             225.947           4.000e+01     
  13.000         270.000            2.320e+00           2.320e+00             336.255          -1.295e+02             225.295           4.000e+01     
  12.000         270.000            2.362e+00           2.362e+00             336.290          -1.297e+02             224.643           4.000e+01     
  11.000         270.000            2.401e+00           2.401e+00             336.326          -1.299e+02             223.989           4.000e+01     
  10.000         270.000            2.437e+00           2.437e+00             336.362          -1.301e+02             223.333           4.000e+01     
   9.000         270.000            2.471e+00           2.471e+00             336.399          -1.303e+02             222.671           4.000e+01     
   8.000         270.000            2.502e+00           2.502e+00             336.437          -1.306e+02             222.003           4.000e+01     
   7.000         270.000            2.530e+00           2.530e+00             336.475          -1.309e+02             221.326           4.000e+01     
   6.000         270.000            2.555e+00           2.555e+00             336.515          -1.311e+02             220.637           4.000e+01     
   5.000         270.000            2.578e+00           2.578e+00             336.555          -1.314e+02             219.934           4.000e+01     
   4.000         270.000            2.598e+00           2.598e+00             336.596          -1.317e+02             219.213           4.000e+01     
   3.000         270.000            2.615e+00           2.615e+00             336.637          -1.320e+02             218.471           4.000e+01     
   2.000         270.000            2.629e+00           2.629e+00             336.680          -1.324e+02             217.703           4.000e+01     
   1.000         270.000            2.641e+00           2.641e+00             336.724          -1.327e+02             216.905           4.000e+01     
