Theta [deg.]  Phi   [deg.]  Abs(Gain)[dBi   ]   Abs(Theta)[dBi   ]  Phase(Theta)[deg.]  Abs(Phi  )[dBi   ]  Phase(Phi  )[deg.]  Ax.Ratio[dB    ]    
------------------------------------------------------------------------------------------------------------------------------------------------------
   0.000          90.000            2.301e+00           2.301e+00             180.874          -1.348e+02             152.596           4.000e+01     
   1.000          90.000            2.307e+00           2.307e+00             180.854          -1.348e+02             156.679           4.000e+01     
   2.000          90.000            2.309e+00           2.309e+00             180.836          -1.349e+02             160.790           4.000e+01     
   3.000          90.000            2.309e+00           2.309e+00             180.820          -1.349e+02             164.878           4.000e+01     
   4.000          90.000            2.305e+00           2.305e+00             180.806          -1.348e+02             168.897           4.000e+01     
   5.000          90.000            2.299e+00           2.299e+00             180.793          -1.347e+02             172.805           4.000e+01     
   6.000          90.000            2.290e+00           2.290e+00             180.782          -1.346e+02             176.565           4.000e+01     
   7.000          90.000            2.278e+00           2.278e+00             180.772          -1.345e+02             180.151           4.000e+01     
   8.000          90.000            2.263e+00           2.263e+00             180.764          -1.343e+02             183.541           4.000e+01     
   9.000          90.000            2.245e+00           2.245e+00             180.758          -1.341e+02             186.724           4.000e+01     
  10.000          90.000            2.224e+00           2.224e+00             180.754          -1.339e+02             189.694           4.000e+01     
  11.000          90.000            2.200e+00           2.200e+00             180.751          -1.337e+02             192.452           4.000e+01     
  12.000          90.000            2.174e+00           2.174e+00             180.750          -1.335e+02             195.001           4.000e+01     
  13.000          90.000            2.144e+00           2.144e+00             180.750          -1.333e+02             197.349           4.000e+01     
  14.000          90.000            2.112e+00           2.112e+00             180.752          -1.331e+02             199.507           4.000e+01     
  15.000          90.000            2.077e+00           2.077e+00             180.756          -1.329e+02             201.483           4.000e+01     
  16.000          90.000            2.039e+00           2.039e+00             180.761          -1.327e+02             203.290           4.000e+01     
  17.000          90.000            1.998e+00           1.998e+00             180.768          -1.325e+02             204.938           4.000e+01     
  18.000          90.000            1.954e+00           1.954e+00             180.777          -1.323e+02             206.439           4.000e+01     
  19.000          90.000            1.907e+00           1.907e+00             180.787          -1.322e+02             207.801           4.000e+01     
  20.000          90.000            1.858e+00           1.858e+00             180.799          -1.320e+02             209.035           4.000e+01     
  21.000          90.000            1.806e+00           1.806e+00             180.813          -1.319e+02             210.149           4.000e+01     
  22.000          90.000            1.750e+00           1.750e+00             180.828          -1.317e+02             211.151           4.000e+01     
  23.000          90.000            1.693e+00           1.693e+00             180.844          -1.316e+02             212.047           4.000e+01     
  24.000          90.000            1.632e+00           1.632e+00             180.863          -1.315e+02             212.844           4.000e+01     
  25.000          90.000            1.569e+00           1.569e+00             180.882          -1.315e+02             213.546           4.000e+01     
  26.000          90.000            1.503e+00           1.503e+00             180.904          -1.314e+02             214.158           4.000e+01     
  27.000          90.000            1.434e+00           1.434e+00             180.927          -1.313e+02             214.684           4.000e+01     
  28.000          90.000            1.362e+00           1.362e+00             180.951          -1.313e+02             215.127           4.000e+01     
  29.000          90.000            1.288e+00           1.288e+00             180.977          -1.313e+02             215.488           4.000e+01     
  30.000          90.000            1.212e+00           1.212e+00             181.005          -1.313e+02             215.770           4.000e+01     
  31.000          90.000            1.132e+00           1.132e+00             181.034          -1.313e+02             215.974           4.000e+01     
  32.000          90.000            1.050e+00           1.050e+00             181.064          -1.313e+02             216.099           4.000e+01     
  33.000          90.000            9.655e-01           9.655e-01             181.096          -1.313e+02             216.144           4.000e+01     
  34.000          90.000            8.783e-01           8.783e-01             181.130          -1.314e+02             216.110           4.000e+01     
  35.000          90.000            7.886e-01           7.886e-01             181.164          -1.314e+02             215.994           4.000e+01     
  36.000          90.000            6.964e-01           6.964e-01             181.201          -1.315e+02             215.792           4.000e+01     
  37.000          90.000            6.017e-01           6.017e-01             181.239          -1.316e+02             215.503           4.000e+01     
  38.000          90.000            5.045e-01           5.045e-01             181.278          -1.318e+02             215.120           4.000e+01     
  39.000          90.000            4.049e-01           4.049e-01             181.319          -1.319e+02             214.640           4.000e+01     
  40.000          90.000            3.028e-01           3.028e-01             181.361          -1.320e+02             214.054           4.000e+01     
  41.000          90.000            1.984e-01           1.984e-01             181.405          -1.322e+02             213.356           4.000e+01     
  42.000          90.000            9.160e-02           9.160e-02             181.450          -1.324e+02             212.536           4.000e+01     
  43.000          90.000           -1.755e-02          -1.755e-02             181.497          -1.326e+02             211.583           4.000e+01     
  44.000          90.000           -1.290e-01          -1.290e-01             181.545          -1.328e+02             210.486           4.000e+01     
  45.000          90.000           -2.428e-01          -2.428e-01             181.594          -1.330e+02             209.231           4.000e+01     
  46.000          90.000           -3.588e-01          -3.588e-01             181.645          -1.333e+02             207.801           4.000e+01     
  47.000          90.000           -4.771e-01          -4.771e-01             181.697          -1.335e+02             206.179           4.000e+01     
  48.000          90.000           -5.976e-01          -5.976e-01             181.751          -1.338e+02             204.345           4.000e+01     
  49.000          90.000           -7.202e-01          -7.202e-01             181.806          -1.340e+02             202.278           4.000e+01     
  50.000          90.000           -8.451e-01          -8.451e-01             181.863          -1.343e+02             199.956           4.000e+01     
  51.000          90.000           -9.721e-01          -9.721e-01             181.920          -1.346e+02             197.354           4.000e+01     
  52.000          90.000           -1.101e+00          -1.101e+00             181.979          -1.349e+02             194.452           4.000e+01     
  53.000          90.000           -1.232e+00          -1.232e+00             182.040          -1.352e+02             191.231           4.000e+01     
  54.000          90.000           -1.366e+00          -1.366e+00             182.102          -1.354e+02             187.678           4.000e+01     
  55.000          90.000           -1.501e+00          -1.501e+00             182.165          -1.356e+02             183.790           4.000e+01     
  56.000          90.000           -1.638e+00          -1.638e+00             182.229          -1.358e+02             179.578           4.000e+01     
  57.000          90.000           -1.778e+00          -1.778e+00             182.295          -1.360e+02             175.069           4.000e+01     
  58.000          90.000           -1.919e+00          -1.919e+00             182.361          -1.361e+02             170.313           4.000e+01     
  59.000          90.000           -2.063e+00          -2.063e+00             182.430          -1.361e+02             165.374           4.000e+01     
  60.000          90.000           -2.208e+00          -2.208e+00             182.499          -1.360e+02             160.341           4.000e+01     
  61.000          90.000           -2.355e+00          -2.355e+00             182.569          -1.359e+02             155.305           4.000e+01     
  62.000          90.000           -2.505e+00          -2.505e+00             182.641          -1.357e+02             150.358           4.000e+01     
  63.000          90.000           -2.656e+00          -2.656e+00             182.714          -1.355e+02             145.585           4.000e+01     
  64.000          90.000           -2.809e+00          -2.809e+00             182.788          -1.352e+02             141.051           4.000e+01     
  65.000          90.000           -2.964e+00          -2.964e+00             182.862          -1.348e+02             136.804           4.000e+01     
  66.000          90.000           -3.121e+00          -3.121e+00             182.938          -1.344e+02             132.870           4.000e+01     
  67.000          90.000           -3.280e+00          -3.280e+00             183.015          -1.340e+02             129.259           4.000e+01     
  68.000          90.000           -3.441e+00          -3.441e+00             183.093          -1.336e+02             125.968           4.000e+01     
  69.000          90.000           -3.604e+00          -3.604e+00             183.171          -1.331e+02             122.983           4.000e+01     
  70.000          90.000           -3.769e+00          -3.769e+00             183.251          -1.327e+02             120.285           4.000e+01     
  71.000          90.000           -3.936e+00          -3.936e+00             183.331          -1.322e+02             117.850           4.000e+01     
  72.000          90.000           -4.105e+00          -4.105e+00             183.411          -1.318e+02             115.656           4.000e+01     
  73.000          90.000           -4.275e+00          -4.275e+00             183.492          -1.313e+02             113.680           4.000e+01     
  74.000          90.000           -4.448e+00          -4.448e+00             183.574          -1.309e+02             111.899           4.000e+01     
  75.000          90.000           -4.623e+00          -4.623e+00             183.655          -1.304e+02             110.294           4.000e+01     
  76.000          90.000           -4.800e+00          -4.800e+00             183.738          -1.300e+02             108.846           4.000e+01     
  77.000          90.000           -4.979e+00          -4.979e+00             183.820          -1.296e+02             107.538           4.000e+01     
  78.000          90.000           -5.161e+00          -5.161e+00             183.902          -1.292e+02             106.355           4.000e+01     
  79.000          90.000           -5.344e+00          -5.344e+00             183.984          -1.289e+02             105.285           4.000e+01     
  80.000          90.000           -5.530e+00          -5.530e+00             184.065          -1.285e+02             104.315           4.000e+01     
  81.000          90.000           -5.719e+00          -5.719e+00             184.146          -1.281e+02             103.436           4.000e+01     
  82.000          90.000           -5.909e+00          -5.909e+00             184.226          -1.278e+02             102.637           4.000e+01     
  83.000          90.000           -6.103e+00          -6.103e+00             184.306          -1.275e+02             101.912           4.000e+01     
  84.000          90.000           -6.299e+00          -6.299e+00             184.384          -1.272e+02             101.252           4.000e+01     
  85.000          90.000           -6.497e+00          -6.497e+00             184.461          -1.268e+02             100.652           4.000e+01     
  86.000          90.000           -6.699e+00          -6.699e+00             184.536          -1.265e+02             100.106           4.000e+01     
  87.000          90.000           -6.903e+00          -6.903e+00             184.609          -1.263e+02              99.609           4.000e+01     
  88.000          90.000           -7.111e+00          -7.111e+00             184.680          -1.260e+02              99.156           4.000e+01     
  89.000          90.000           -7.322e+00          -7.322e+00             184.748          -1.257e+02              98.744           4.000e+01     
  90.000          90.000           -7.536e+00          -7.536e+00             184.814          -1.254e+02              98.369           4.000e+01     
  91.000          90.000           -7.754e+00          -7.754e+00             184.876          -1.252e+02              98.027           4.000e+01     
  92.000          90.000           -7.975e+00          -7.975e+00             184.934          -1.249e+02              97.717           4.000e+01     
  93.000          90.000           -8.201e+00          -8.201e+00             184.988          -1.247e+02              97.435           4.000e+01     
  94.000          90.000           -8.430e+00          -8.430e+00             185.037          -1.245e+02              97.179           4.000e+01     
  95.000          90.000           -8.664e+00          -8.664e+00             185.081          -1.243e+02              96.947           4.000e+01     
  96.000          90.000           -8.903e+00          -8.903e+00             185.119          -1.241e+02              96.738           4.000e+01     
  97.000          90.000           -9.146e+00          -9.146e+00             185.150          -1.238e+02              96.548           4.000e+01     
  98.000          90.000           -9.395e+00          -9.395e+00             185.174          -1.236e+02              96.378           4.000e+01     
  99.000          90.000           -9.649e+00          -9.649e+00             185.190          -1.235e+02              96.225           4.000e+01     
 100.000          90.000           -9.909e+00          -9.909e+00             185.196          -1.233e+02              96.088           4.000e+01     
 101.000          90.000           -1.018e+01          -1.018e+01             185.192          -1.231e+02              95.966           4.000e+01     
 102.000          90.000           -1.045e+01          -1.045e+01             185.176          -1.229e+02              95.858           4.000e+01     
 103.000          90.000           -1.073e+01          -1.073e+01             185.148          -1.228e+02              95.762           4.000e+01     
 104.000          90.000           -1.102e+01          -1.102e+01             185.106          -1.226e+02              95.679           4.000e+01     
 105.000          90.000           -1.131e+01          -1.131e+01             185.048          -1.224e+02              95.606           4.000e+01     
 106.000          90.000           -1.162e+01          -1.162e+01             184.973          -1.223e+02              95.544           4.000e+01     
 107.000          90.000           -1.193e+01          -1.193e+01             184.877          -1.222e+02              95.491           4.000e+01     
 108.000          90.000           -1.225e+01          -1.225e+01             184.760          -1.220e+02              95.447           4.000e+01     
 109.000          90.000           -1.259e+01          -1.259e+01             184.618          -1.219e+02              95.412           4.000e+01     
 110.000          90.000           -1.294e+01          -1.294e+01             184.448          -1.218e+02              95.384           4.000e+01     
 111.000          90.000           -1.330e+01          -1.330e+01             184.247          -1.216e+02              95.363           4.000e+01     
 112.000          90.000           -1.367e+01          -1.367e+01             184.010          -1.215e+02              95.348           4.000e+01     
 113.000          90.000           -1.406e+01          -1.406e+01             183.732          -1.214e+02              95.339           4.000e+01     
 114.000          90.000           -1.446e+01          -1.446e+01             183.408          -1.213e+02              95.337           4.000e+01     
 115.000          90.000           -1.488e+01          -1.488e+01             183.031          -1.212e+02              95.339           4.000e+01     
 116.000          90.000           -1.532e+01          -1.532e+01             182.592          -1.211e+02              95.346           4.000e+01     
 117.000          90.000           -1.579e+01          -1.579e+01             182.082          -1.211e+02              95.357           4.000e+01     
 118.000          90.000           -1.627e+01          -1.627e+01             181.488          -1.210e+02              95.373           4.000e+01     
 119.000          90.000           -1.678e+01          -1.678e+01             180.797          -1.209e+02              95.392           4.000e+01     
 120.000          90.000           -1.732e+01          -1.732e+01             179.989          -1.208e+02              95.414           4.000e+01     
 121.000          90.000           -1.789e+01          -1.789e+01             179.042          -1.208e+02              95.440           4.000e+01     
 122.000          90.000           -1.849e+01          -1.849e+01             177.927          -1.207e+02              95.468           4.000e+01     
 123.000          90.000           -1.914e+01          -1.914e+01             176.607          -1.207e+02              95.499           4.000e+01     
 124.000          90.000           -1.982e+01          -1.982e+01             175.035          -1.206e+02              95.532           4.000e+01     
 125.000          90.000           -2.055e+01          -2.055e+01             173.148          -1.206e+02              95.566           4.000e+01     
 126.000          90.000           -2.133e+01          -2.133e+01             170.865          -1.205e+02              95.603           4.000e+01     
 127.000          90.000           -2.216e+01          -2.216e+01             168.074          -1.205e+02              95.641           4.000e+01     
 128.000          90.000           -2.305e+01          -2.305e+01             164.631          -1.205e+02              95.680           4.000e+01     
 129.000          90.000           -2.399e+01          -2.399e+01             160.339          -1.205e+02              95.720           4.000e+01     
 130.000          90.000           -2.496e+01          -2.496e+01             154.950          -1.205e+02              95.761           4.000e+01     
 131.000          90.000           -2.593e+01          -2.593e+01             148.168          -1.205e+02              95.802           4.000e+01     
 132.000          90.000           -2.684e+01          -2.684e+01             139.707          -1.205e+02              95.844           4.000e+01     
 133.000          90.000           -2.758e+01          -2.758e+01             129.444          -1.205e+02              95.885           4.000e+01     
 134.000          90.000           -2.803e+01          -2.803e+01             117.667          -1.205e+02              95.927           4.000e+01     
 135.000          90.000           -2.808e+01          -2.808e+01             105.231          -1.205e+02              95.968           4.000e+01     
 136.000          90.000           -2.772e+01          -2.772e+01              93.303          -1.205e+02              96.009           4.000e+01     
 137.000          90.000           -2.704e+01          -2.704e+01              82.806          -1.206e+02              96.049           4.000e+01     
 138.000          90.000           -2.619e+01          -2.619e+01              74.102          -1.206e+02              96.088           4.000e+01     
 139.000          90.000           -2.526e+01          -2.526e+01              67.107          -1.207e+02              96.125           4.000e+01     
 140.000          90.000           -2.433e+01          -2.433e+01              61.546          -1.207e+02              96.162           4.000e+01     
 141.000          90.000           -2.343e+01          -2.343e+01              57.120          -1.208e+02              96.197           4.000e+01     
 142.000          90.000           -2.257e+01          -2.257e+01              53.572          -1.209e+02              96.229           4.000e+01     
 143.000          90.000           -2.178e+01          -2.178e+01              50.700          -1.209e+02              96.260           4.000e+01     
 144.000          90.000           -2.103e+01          -2.103e+01              48.353          -1.210e+02              96.289           4.000e+01     
 145.000          90.000           -2.034e+01          -2.034e+01              46.415          -1.211e+02              96.314           4.000e+01     
 146.000          90.000           -1.970e+01          -1.970e+01              44.801          -1.212e+02              96.337           4.000e+01     
 147.000          90.000           -1.910e+01          -1.910e+01              43.448          -1.214e+02              96.357           4.000e+01     
 148.000          90.000           -1.854e+01          -1.854e+01              42.305          -1.215e+02              96.373           4.000e+01     
 149.000          90.000           -1.802e+01          -1.802e+01              41.334          -1.216e+02              96.386           4.000e+01     
 150.000          90.000           -1.753e+01          -1.753e+01              40.507          -1.218e+02              96.394           4.000e+01     
 151.000          90.000           -1.708e+01          -1.708e+01              39.799          -1.219e+02              96.398           4.000e+01     
 152.000          90.000           -1.665e+01          -1.665e+01              39.192          -1.221e+02              96.396           4.000e+01     
 153.000          90.000           -1.625e+01          -1.625e+01              38.671          -1.223e+02              96.389           4.000e+01     
 154.000          90.000           -1.587e+01          -1.587e+01              38.224          -1.225e+02              96.376           4.000e+01     
 155.000          90.000           -1.551e+01          -1.551e+01              37.841          -1.227e+02              96.356           4.000e+01     
 156.000          90.000           -1.518e+01          -1.518e+01              37.513          -1.229e+02              96.329           4.000e+01     
 157.000          90.000           -1.486e+01          -1.486e+01              37.233          -1.232e+02              96.294           4.000e+01     
 158.000          90.000           -1.456e+01          -1.456e+01              36.997          -1.234e+02              96.250           4.000e+01     
 159.000          90.000           -1.428e+01          -1.428e+01              36.798          -1.237e+02              96.196           4.000e+01     
 160.000          90.000           -1.402e+01          -1.402e+01              36.633          -1.240e+02              96.131           4.000e+01     
 161.000          90.000           -1.377e+01          -1.377e+01              36.499          -1.243e+02              96.054           4.000e+01     
 162.000          90.000           -1.353e+01          -1.353e+01              36.391          -1.246e+02              95.963           4.000e+01     
 163.000          90.000           -1.331e+01          -1.331e+01              36.309          -1.249e+02              95.855           4.000e+01     
 164.000          90.000           -1.311e+01          -1.311e+01              36.249          -1.253e+02              95.730           4.000e+01     
 165.000          90.000           -1.291e+01          -1.291e+01              36.211          -1.257e+02              95.584           4.000e+01     
 166.000          90.000           -1.273e+01          -1.273e+01              36.191          -1.261e+02              95.414           4.000e+01     
 167.000          90.000           -1.256e+01          -1.256e+01              36.189          -1.266e+02              95.216           4.000e+01     
 168.000          90.000           -1.241e+01          -1.241e+01              36.203          -1.271e+02              94.985           4.000e+01     
 169.000          90.000           -1.226e+01          -1.226e+01              36.233          -1.276e+02              94.715           4.000e+01     
 170.000          90.000           -1.212e+01          -1.212e+01              36.277          -1.281e+02              94.398           4.000e+01     
 171.000          90.000           -1.200e+01          -1.200e+01              36.335          -1.287e+02              94.023           4.000e+01     
 172.000          90.000           -1.188e+01          -1.188e+01              36.407          -1.294e+02              93.578           4.000e+01     
 173.000          90.000           -1.178e+01          -1.178e+01              36.491          -1.301e+02              93.042           4.000e+01     
 174.000          90.000           -1.168e+01          -1.168e+01              36.587          -1.309e+02              92.391           4.000e+01     
 175.000          90.000           -1.160e+01          -1.160e+01              36.695          -1.318e+02              91.587           4.000e+01     
 176.000          90.000           -1.153e+01          -1.153e+01              36.814          -1.328e+02              90.576           4.000e+01     
 177.000          90.000           -1.146e+01          -1.146e+01              36.945          -1.339e+02              89.275           4.000e+01     
 178.000          90.000           -1.140e+01          -1.140e+01              37.088          -1.352e+02              87.548           4.000e+01     
 179.000          90.000           -1.136e+01          -1.136e+01              37.241          -1.367e+02              85.160           4.000e+01     
 180.000          90.000           -1.132e+01          -1.132e+01              37.406          -1.384e+02              81.682           4.000e+01     
 179.000         270.000           -1.129e+01          -1.129e+01             217.582          -1.406e+02             256.209           4.000e+01     
 178.000         270.000           -1.127e+01          -1.127e+01             217.770          -1.432e+02             246.672           4.000e+01     
 177.000         270.000           -1.126e+01          -1.126e+01             217.969          -1.463e+02             227.954           4.000e+01     
 176.000         270.000           -1.126e+01          -1.126e+01             218.181          -1.483e+02             192.734           4.000e+01     
 175.000         270.000           -1.127e+01          -1.127e+01             218.405          -1.467e+02             156.004           4.000e+01     
 174.000         270.000           -1.128e+01          -1.128e+01             218.642          -1.436e+02             135.825           4.000e+01     
 173.000         270.000           -1.131e+01          -1.131e+01             218.892          -1.410e+02             125.636           4.000e+01     
 172.000         270.000           -1.134e+01          -1.134e+01             219.156          -1.388e+02             119.855           4.000e+01     
 171.000         270.000           -1.138e+01          -1.138e+01             219.435          -1.371e+02             116.204           4.000e+01     
 170.000         270.000           -1.144e+01          -1.144e+01             219.729          -1.356e+02             113.709           4.000e+01     
 169.000         270.000           -1.150e+01          -1.150e+01             220.040          -1.344e+02             111.905           4.000e+01     
 168.000         270.000           -1.157e+01          -1.157e+01             220.368          -1.333e+02             110.541           4.000e+01     
 167.000         270.000           -1.165e+01          -1.165e+01             220.714          -1.323e+02             109.477           4.000e+01     
 166.000         270.000           -1.174e+01          -1.174e+01             221.079          -1.315e+02             108.623           4.000e+01     
 165.000         270.000           -1.184e+01          -1.184e+01             221.466          -1.308e+02             107.922           4.000e+01     
 164.000         270.000           -1.195e+01          -1.195e+01             221.875          -1.301e+02             107.338           4.000e+01     
 163.000         270.000           -1.206e+01          -1.206e+01             222.308          -1.295e+02             106.842           4.000e+01     
 162.000         270.000           -1.219e+01          -1.219e+01             222.768          -1.289e+02             106.416           4.000e+01     
 161.000         270.000           -1.233e+01          -1.233e+01             223.255          -1.284e+02             106.046           4.000e+01     
 160.000         270.000           -1.248e+01          -1.248e+01             223.773          -1.279e+02             105.721           4.000e+01     
 159.000         270.000           -1.264e+01          -1.264e+01             224.324          -1.275e+02             105.432           4.000e+01     
 158.000         270.000           -1.281e+01          -1.281e+01             224.912          -1.271e+02             105.175           4.000e+01     
 157.000         270.000           -1.299e+01          -1.299e+01             225.539          -1.267e+02             104.942           4.000e+01     
 156.000         270.000           -1.318e+01          -1.318e+01             226.209          -1.263e+02             104.731           4.000e+01     
 155.000         270.000           -1.338e+01          -1.338e+01             226.927          -1.260e+02             104.538           4.000e+01     
 154.000         270.000           -1.360e+01          -1.360e+01             227.697          -1.257e+02             104.361           4.000e+01     
 153.000         270.000           -1.382e+01          -1.382e+01             228.524          -1.254e+02             104.197           4.000e+01     
 152.000         270.000           -1.406e+01          -1.406e+01             229.416          -1.252e+02             104.044           4.000e+01     
 151.000         270.000           -1.431e+01          -1.431e+01             230.377          -1.250e+02             103.902           4.000e+01     
 150.000         270.000           -1.458e+01          -1.458e+01             231.417          -1.247e+02             103.768           4.000e+01     
 149.000         270.000           -1.485e+01          -1.485e+01             232.545          -1.245e+02             103.642           4.000e+01     
 148.000         270.000           -1.514e+01          -1.514e+01             233.769          -1.243e+02             103.522           4.000e+01     
 147.000         270.000           -1.544e+01          -1.544e+01             235.102          -1.242e+02             103.409           4.000e+01     
 146.000         270.000           -1.576e+01          -1.576e+01             236.557          -1.240e+02             103.301           4.000e+01     
 145.000         270.000           -1.609e+01          -1.609e+01             238.147          -1.239e+02             103.197           4.000e+01     
 144.000         270.000           -1.643e+01          -1.643e+01             239.891          -1.237e+02             103.098           4.000e+01     
 143.000         270.000           -1.678e+01          -1.678e+01             241.805          -1.236e+02             103.003           4.000e+01     
 142.000         270.000           -1.714e+01          -1.714e+01             243.912          -1.235e+02             102.911           4.000e+01     
 141.000         270.000           -1.751e+01          -1.751e+01             246.233          -1.234e+02             102.822           4.000e+01     
 140.000         270.000           -1.788e+01          -1.788e+01             248.792          -1.233e+02             102.736           4.000e+01     
 139.000         270.000           -1.826e+01          -1.826e+01             251.615          -1.232e+02             102.652           4.000e+01     
 138.000         270.000           -1.863e+01          -1.863e+01             254.728          -1.232e+02             102.571           4.000e+01     
 137.000         270.000           -1.899e+01          -1.899e+01             258.152          -1.231e+02             102.492           4.000e+01     
 136.000         270.000           -1.934e+01          -1.934e+01             261.908          -1.231e+02             102.415           4.000e+01     
 135.000         270.000           -1.967e+01          -1.967e+01             266.005          -1.230e+02             102.340           4.000e+01     
 134.000         270.000           -1.996e+01          -1.996e+01             270.441          -1.230e+02             102.267           4.000e+01     
 133.000         270.000           -2.020e+01          -2.020e+01             275.196          -1.230e+02             102.196           4.000e+01     
 132.000         270.000           -2.039e+01          -2.039e+01             280.231          -1.230e+02             102.127           4.000e+01     
 131.000         270.000           -2.051e+01          -2.051e+01             285.483          -1.230e+02             102.059           4.000e+01     
 130.000         270.000           -2.056e+01          -2.056e+01             290.868          -1.230e+02             101.994           4.000e+01     
 129.000         270.000           -2.052e+01          -2.052e+01             296.290          -1.230e+02             101.930           4.000e+01     
 128.000         270.000           -2.041e+01          -2.041e+01             301.648          -1.230e+02             101.867           4.000e+01     
 127.000         270.000           -2.023e+01          -2.023e+01             306.847          -1.230e+02             101.807           4.000e+01     
 126.000         270.000           -1.998e+01          -1.998e+01             311.809          -1.231e+02             101.748           4.000e+01     
 125.000         270.000           -1.967e+01          -1.967e+01             316.476          -1.231e+02             101.692           4.000e+01     
 124.000         270.000           -1.933e+01          -1.933e+01             320.813          -1.232e+02             101.637           4.000e+01     
 123.000         270.000           -1.894e+01          -1.894e+01             324.805          -1.232e+02             101.585           4.000e+01     
 122.000         270.000           -1.854e+01          -1.854e+01             328.453          -1.233e+02             101.534           4.000e+01     
 121.000         270.000           -1.812e+01          -1.812e+01             331.770          -1.234e+02             101.486           4.000e+01     
 120.000         270.000           -1.769e+01          -1.769e+01             334.775          -1.234e+02             101.441           4.000e+01     
 119.000         270.000           -1.726e+01          -1.726e+01             337.493          -1.235e+02             101.398           4.000e+01     
 118.000         270.000           -1.683e+01          -1.683e+01             339.949          -1.236e+02             101.359           4.000e+01     
 117.000         270.000           -1.640e+01          -1.640e+01             342.168          -1.237e+02             101.322           4.000e+01     
 116.000         270.000           -1.598e+01          -1.598e+01             344.174          -1.238e+02             101.288           4.000e+01     
 115.000         270.000           -1.557e+01          -1.557e+01             345.990          -1.239e+02             101.258           4.000e+01     
 114.000         270.000           -1.517e+01          -1.517e+01             347.635          -1.241e+02             101.232           4.000e+01     
 113.000         270.000           -1.478e+01          -1.478e+01             349.127          -1.242e+02             101.210           4.000e+01     
 112.000         270.000           -1.440e+01          -1.440e+01             350.483          -1.244e+02             101.192           4.000e+01     
 111.000         270.000           -1.403e+01          -1.403e+01             351.717          -1.245e+02             101.179           4.000e+01     
 110.000         270.000           -1.367e+01          -1.367e+01             352.841          -1.247e+02             101.171           4.000e+01     
 109.000         270.000           -1.332e+01          -1.332e+01             353.867          -1.248e+02             101.169           4.000e+01     
 108.000         270.000           -1.298e+01          -1.298e+01             354.805          -1.250e+02             101.173           4.000e+01     
 107.000         270.000           -1.265e+01          -1.265e+01             355.663          -1.252e+02             101.183           4.000e+01     
 106.000         270.000           -1.233e+01          -1.233e+01             356.449          -1.254e+02             101.201           4.000e+01     
 105.000         270.000           -1.201e+01          -1.201e+01             357.169          -1.256e+02             101.226           4.000e+01     
 104.000         270.000           -1.171e+01          -1.171e+01             357.831          -1.258e+02             101.260           4.000e+01     
 103.000         270.000           -1.141e+01          -1.141e+01             358.438          -1.260e+02             101.303           4.000e+01     
 102.000         270.000           -1.112e+01          -1.112e+01             358.996          -1.263e+02             101.356           4.000e+01     
 101.000         270.000           -1.084e+01          -1.084e+01             359.508          -1.265e+02             101.420           4.000e+01     
 100.000         270.000           -1.056e+01          -1.056e+01             359.980          -1.268e+02             101.497           4.000e+01     
  99.000         270.000           -1.029e+01          -1.029e+01               0.413          -1.270e+02             101.587           4.000e+01     
  98.000         270.000           -1.003e+01          -1.003e+01               0.812          -1.273e+02             101.692           4.000e+01     
  97.000         270.000           -9.775e+00          -9.775e+00               1.178          -1.276e+02             101.814           4.000e+01     
  96.000         270.000           -9.524e+00          -9.524e+00               1.515          -1.279e+02             101.954           4.000e+01     
  95.000         270.000           -9.279e+00          -9.279e+00               1.824          -1.283e+02             102.116           4.000e+01     
  94.000         270.000           -9.038e+00          -9.038e+00               2.107          -1.286e+02             102.301           4.000e+01     
  93.000         270.000           -8.802e+00          -8.802e+00               2.367          -1.290e+02             102.512           4.000e+01     
  92.000         270.000           -8.571e+00          -8.571e+00               2.605          -1.294e+02             102.754           4.000e+01     
  91.000         270.000           -8.345e+00          -8.345e+00               2.823          -1.298e+02             103.030           4.000e+01     
  90.000         270.000           -8.122e+00          -8.122e+00               3.021          -1.302e+02             103.346           4.000e+01     
  89.000         270.000           -7.904e+00          -7.904e+00               3.201          -1.306e+02             103.707           4.000e+01     
  88.000         270.000           -7.689e+00          -7.689e+00               3.365          -1.311e+02             104.123           4.000e+01     
  87.000         270.000           -7.478e+00          -7.478e+00               3.514          -1.316e+02             104.601           4.000e+01     
  86.000         270.000           -7.270e+00          -7.270e+00               3.647          -1.322e+02             105.154           4.000e+01     
  85.000         270.000           -7.066e+00          -7.066e+00               3.767          -1.328e+02             105.798           4.000e+01     
  84.000         270.000           -6.864e+00          -6.864e+00               3.875          -1.334e+02             106.551           4.000e+01     
  83.000         270.000           -6.666e+00          -6.666e+00               3.970          -1.341e+02             107.439           4.000e+01     
  82.000         270.000           -6.471e+00          -6.471e+00               4.054          -1.348e+02             108.496           4.000e+01     
  81.000         270.000           -6.278e+00          -6.278e+00               4.128          -1.356e+02             109.769           4.000e+01     
  80.000         270.000           -6.088e+00          -6.088e+00               4.191          -1.364e+02             111.322           4.000e+01     
  79.000         270.000           -5.901e+00          -5.901e+00               4.245          -1.374e+02             113.247           4.000e+01     
  78.000         270.000           -5.716e+00          -5.716e+00               4.291          -1.384e+02             115.681           4.000e+01     
  77.000         270.000           -5.533e+00          -5.533e+00               4.328          -1.396e+02             118.829           4.000e+01     
  76.000         270.000           -5.353e+00          -5.353e+00               4.357          -1.409e+02             123.015           4.000e+01     
  75.000         270.000           -5.175e+00          -5.175e+00               4.379          -1.424e+02             128.756           4.000e+01     
  74.000         270.000           -4.999e+00          -4.999e+00               4.395          -1.439e+02             136.880           4.000e+01     
  73.000         270.000           -4.826e+00          -4.826e+00               4.403          -1.456e+02             148.591           4.000e+01     
  72.000         270.000           -4.654e+00          -4.654e+00               4.406          -1.469e+02             165.014           4.000e+01     
  71.000         270.000           -4.485e+00          -4.485e+00               4.403          -1.474e+02             185.320           4.000e+01     
  70.000         270.000           -4.317e+00          -4.317e+00               4.394          -1.468e+02             205.297           4.000e+01     
  69.000         270.000           -4.152e+00          -4.152e+00               4.381          -1.455e+02             221.083           4.000e+01     
  68.000         270.000           -3.988e+00          -3.988e+00               4.363          -1.440e+02             232.259           4.000e+01     
  67.000         270.000           -3.826e+00          -3.826e+00               4.340          -1.425e+02             240.033           4.000e+01     
  66.000         270.000           -3.666e+00          -3.666e+00               4.313          -1.411e+02             245.565           4.000e+01     
  65.000         270.000           -3.508e+00          -3.508e+00               4.283          -1.399e+02             249.633           4.000e+01     
  64.000         270.000           -3.351e+00          -3.351e+00               4.248          -1.389e+02             252.724           4.000e+01     
  63.000         270.000           -3.197e+00          -3.197e+00               4.211          -1.379e+02             255.142           4.000e+01     
  62.000         270.000           -3.044e+00          -3.044e+00               4.170          -1.371e+02             257.081           4.000e+01     
  61.000         270.000           -2.893e+00          -2.893e+00               4.126          -1.363e+02             258.671           4.000e+01     
  60.000         270.000           -2.744e+00          -2.744e+00               4.080          -1.356e+02             259.999           4.000e+01     
  59.000         270.000           -2.597e+00          -2.597e+00               4.031          -1.350e+02             261.128           4.000e+01     
  58.000         270.000           -2.451e+00          -2.451e+00               3.979          -1.344e+02             262.102           4.000e+01     
  57.000         270.000           -2.307e+00          -2.307e+00               3.926          -1.339e+02             262.954           4.000e+01     
  56.000         270.000           -2.165e+00          -2.165e+00               3.870          -1.334e+02             263.709           4.000e+01     
  55.000         270.000           -2.025e+00          -2.025e+00               3.813          -1.329e+02             264.386           4.000e+01     
  54.000         270.000           -1.887e+00          -1.887e+00               3.754          -1.325e+02             265.000           4.000e+01     
  53.000         270.000           -1.750e+00          -1.750e+00               3.694          -1.321e+02             265.562           4.000e+01     
  52.000         270.000           -1.615e+00          -1.615e+00               3.632          -1.318e+02             266.082           4.000e+01     
  51.000         270.000           -1.482e+00          -1.482e+00               3.569          -1.315e+02             266.569           4.000e+01     
  50.000         270.000           -1.351e+00          -1.351e+00               3.505          -1.312e+02             267.028           4.000e+01     
  49.000         270.000           -1.222e+00          -1.222e+00               3.440          -1.309e+02             267.465           4.000e+01     
  48.000         270.000           -1.095e+00          -1.095e+00               3.375          -1.306e+02             267.884           4.000e+01     
  47.000         270.000           -9.695e-01          -9.695e-01               3.308          -1.304e+02             268.291           4.000e+01     
  46.000         270.000           -8.461e-01          -8.461e-01               3.242          -1.302e+02             268.687           4.000e+01     
  45.000         270.000           -7.247e-01          -7.247e-01               3.174          -1.300e+02             269.077           4.000e+01     
  44.000         270.000           -6.052e-01          -6.052e-01               3.107          -1.298e+02             269.463           4.000e+01     
  43.000         270.000           -4.878e-01          -4.878e-01               3.039          -1.297e+02             269.848           4.000e+01     
  42.000         270.000           -3.724e-01          -3.724e-01               2.971          -1.295e+02             270.234           4.000e+01     
  41.000         270.000           -2.591e-01          -2.591e-01               2.903          -1.294e+02             270.624           4.000e+01     
  40.000         270.000           -1.478e-01          -1.478e-01               2.835          -1.293e+02             271.019           4.000e+01     
  39.000         270.000           -3.871e-02          -3.871e-02               2.767          -1.292e+02             271.422           4.000e+01     
  38.000         270.000            6.827e-02           6.827e-02               2.700          -1.292e+02             271.835           4.000e+01     
  37.000         270.000            1.731e-01           1.731e-01               2.632          -1.291e+02             272.260           4.000e+01     
  36.000         270.000            2.757e-01           2.757e-01               2.566          -1.290e+02             272.698           4.000e+01     
  35.000         270.000            3.761e-01           3.761e-01               2.499          -1.290e+02             273.153           4.000e+01     
  34.000         270.000            4.743e-01           4.743e-01               2.433          -1.290e+02             273.626           4.000e+01     
  33.000         270.000            5.701e-01           5.701e-01               2.368          -1.290e+02             274.119           4.000e+01     
  32.000         270.000            6.637e-01           6.637e-01               2.304          -1.290e+02             274.635           4.000e+01     
  31.000         270.000            7.550e-01           7.550e-01               2.240          -1.290e+02             275.176           4.000e+01     
  30.000         270.000            8.438e-01           8.438e-01               2.177          -1.291e+02             275.745           4.000e+01     
  29.000         270.000            9.303e-01           9.303e-01               2.115          -1.291e+02             276.345           4.000e+01     
  28.000         270.000            1.014e+00           1.014e+00               2.054          -1.292e+02             276.979           4.000e+01     
  27.000         270.000            1.096e+00           1.096e+00               1.994          -1.292e+02             277.650           4.000e+01     
  26.000         270.000            1.175e+00           1.175e+00               1.934          -1.293e+02             278.362           4.000e+01     
  25.000         270.000            1.252e+00           1.252e+00               1.876          -1.294e+02             279.118           4.000e+01     
  24.000         270.000            1.326e+00           1.326e+00               1.819          -1.296e+02             279.924           4.000e+01     
  23.000         270.000            1.398e+00           1.398e+00               1.764          -1.297e+02             280.782           4.000e+01     
  22.000         270.000            1.467e+00           1.467e+00               1.709          -1.298e+02             281.699           4.000e+01     
  21.000         270.000            1.534e+00           1.534e+00               1.656          -1.300e+02             282.681           4.000e+01     
  20.000         270.000            1.598e+00           1.598e+00               1.604          -1.302e+02             283.732           4.000e+01     
  19.000         270.000            1.659e+00           1.659e+00               1.553          -1.303e+02             284.861           4.000e+01     
  18.000         270.000            1.717e+00           1.717e+00               1.503          -1.305e+02             286.074           4.000e+01     
  17.000         270.000            1.773e+00           1.773e+00               1.456          -1.308e+02             287.379           4.000e+01     
  16.000         270.000            1.827e+00           1.827e+00               1.409          -1.310e+02             288.785           4.000e+01     
  15.000         270.000            1.877e+00           1.877e+00               1.364          -1.312e+02             290.302           4.000e+01     
  14.000         270.000            1.925e+00           1.925e+00               1.320          -1.314e+02             291.939           4.000e+01     
  13.000         270.000            1.970e+00           1.970e+00               1.278          -1.317e+02             293.708           4.000e+01     
  12.000         270.000            2.013e+00           2.013e+00               1.237          -1.320e+02             295.620           4.000e+01     
  11.000         270.000            2.052e+00           2.052e+00               1.198          -1.322e+02             297.686           4.000e+01     
  10.000         270.000            2.089e+00           2.089e+00               1.161          -1.325e+02             299.919           4.000e+01     
   9.000         270.000            2.123e+00           2.123e+00               1.125          -1.328e+02             302.329           4.000e+01     
   8.000         270.000            2.154e+00           2.154e+00               1.090          -1.331e+02             304.928           4.000e+01     
   7.000         270.000            2.183e+00           2.183e+00               1.058          -1.333e+02             307.723           4.000e+01     
   6.000         270.000            2.208e+00           2.208e+00               1.026          -1.336e+02             310.720           4.000e+01     
   5.000         270.000            2.231e+00           2.231e+00               0.997          -1.339e+02             313.921           4.000e+01     
   4.000         270.000            2.251e+00           2.251e+00               0.969          -1.341e+02             317.322           4.000e+01     
   3.000         270.000            2.268e+00           2.268e+00               0.943          -1.343e+02             320.912           4.000e+01     
   2.000         270.000            2.282e+00           2.282e+00               0.918          -1.345e+02             324.673           4.000e+01     
   1.000         270.000            2.293e+00           2.293e+00               0.895          -1.346e+02             328.579           4.000e+01     
