Theta [deg.]  Phi   [deg.]  Abs(Dir.)[dBi   ]   Abs(Theta)[dBi   ]  Phase(Theta)[deg.]  Abs(Phi  )[dBi   ]  Phase(Phi  )[deg.]  Ax.Ratio[dB    ]    
------------------------------------------------------------------------------------------------------------------------------------------------------
   0.000          90.000            6.448e+00           6.448e+00             157.151          -1.272e+02              91.760           4.000e+01     
   1.000          90.000            6.452e+00           6.452e+00             157.148          -1.275e+02              94.005           4.000e+01     
   2.000          90.000            6.453e+00           6.453e+00             157.146          -1.278e+02              96.395           4.000e+01     
   3.000          90.000            6.451e+00           6.451e+00             157.146          -1.280e+02              98.931           4.000e+01     
   4.000          90.000            6.446e+00           6.446e+00             157.148          -1.283e+02             101.608           4.000e+01     
   5.000          90.000            6.438e+00           6.438e+00             157.152          -1.285e+02             104.420           4.000e+01     
   6.000          90.000            6.427e+00           6.427e+00             157.158          -1.288e+02             107.357           4.000e+01     
   7.000          90.000            6.414e+00           6.414e+00             157.166          -1.290e+02             110.405           4.000e+01     
   8.000          90.000            6.397e+00           6.397e+00             157.176          -1.292e+02             113.544           4.000e+01     
   9.000          90.000            6.378e+00           6.378e+00             157.188          -1.293e+02             116.752           4.000e+01     
  10.000          90.000            6.355e+00           6.355e+00             157.202          -1.295e+02             120.001           4.000e+01     
  11.000          90.000            6.330e+00           6.330e+00             157.218          -1.296e+02             123.263           4.000e+01     
  12.000          90.000            6.302e+00           6.302e+00             157.236          -1.296e+02             126.509           4.000e+01     
  13.000          90.000            6.271e+00           6.271e+00             157.256          -1.297e+02             129.707           4.000e+01     
  14.000          90.000            6.237e+00           6.237e+00             157.278          -1.297e+02             132.830           4.000e+01     
  15.000          90.000            6.200e+00           6.200e+00             157.302          -1.297e+02             135.853           4.000e+01     
  16.000          90.000            6.160e+00           6.160e+00             157.328          -1.297e+02             138.753           4.000e+01     
  17.000          90.000            6.118e+00           6.118e+00             157.356          -1.296e+02             141.514           4.000e+01     
  18.000          90.000            6.072e+00           6.072e+00             157.386          -1.296e+02             144.121           4.000e+01     
  19.000          90.000            6.024e+00           6.024e+00             157.418          -1.295e+02             146.565           4.000e+01     
  20.000          90.000            5.973e+00           5.973e+00             157.452          -1.294e+02             148.842           4.000e+01     
  21.000          90.000            5.919e+00           5.919e+00             157.488          -1.294e+02             150.947           4.000e+01     
  22.000          90.000            5.862e+00           5.862e+00             157.527          -1.293e+02             152.882           4.000e+01     
  23.000          90.000            5.803e+00           5.803e+00             157.567          -1.292e+02             154.648           4.000e+01     
  24.000          90.000            5.741e+00           5.741e+00             157.609          -1.291e+02             156.249           4.000e+01     
  25.000          90.000            5.676e+00           5.676e+00             157.654          -1.290e+02             157.690           4.000e+01     
  26.000          90.000            5.608e+00           5.608e+00             157.700          -1.290e+02             158.974           4.000e+01     
  27.000          90.000            5.538e+00           5.538e+00             157.749          -1.289e+02             160.107           4.000e+01     
  28.000          90.000            5.465e+00           5.465e+00             157.799          -1.288e+02             161.095           4.000e+01     
  29.000          90.000            5.389e+00           5.389e+00             157.852          -1.288e+02             161.941           4.000e+01     
  30.000          90.000            5.311e+00           5.311e+00             157.907          -1.287e+02             162.650           4.000e+01     
  31.000          90.000            5.230e+00           5.230e+00             157.964          -1.287e+02             163.225           4.000e+01     
  32.000          90.000            5.146e+00           5.146e+00             158.023          -1.287e+02             163.670           4.000e+01     
  33.000          90.000            5.060e+00           5.060e+00             158.084          -1.287e+02             163.986           4.000e+01     
  34.000          90.000            4.971e+00           4.971e+00             158.147          -1.287e+02             164.175           4.000e+01     
  35.000          90.000            4.880e+00           4.880e+00             158.213          -1.287e+02             164.238           4.000e+01     
  36.000          90.000            4.787e+00           4.787e+00             158.281          -1.288e+02             164.174           4.000e+01     
  37.000          90.000            4.690e+00           4.690e+00             158.350          -1.288e+02             163.983           4.000e+01     
  38.000          90.000            4.592e+00           4.592e+00             158.422          -1.289e+02             163.663           4.000e+01     
  39.000          90.000            4.491e+00           4.491e+00             158.497          -1.289e+02             163.210           4.000e+01     
  40.000          90.000            4.388e+00           4.388e+00             158.573          -1.290e+02             162.621           4.000e+01     
  41.000          90.000            4.282e+00           4.282e+00             158.652          -1.291e+02             161.893           4.000e+01     
  42.000          90.000            4.174e+00           4.174e+00             158.733          -1.292e+02             161.018           4.000e+01     
  43.000          90.000            4.064e+00           4.064e+00             158.817          -1.293e+02             159.992           4.000e+01     
  44.000          90.000            3.951e+00           3.951e+00             158.902          -1.294e+02             158.808           4.000e+01     
  45.000          90.000            3.836e+00           3.836e+00             158.990          -1.296e+02             157.457           4.000e+01     
  46.000          90.000            3.720e+00           3.720e+00             159.081          -1.297e+02             155.933           4.000e+01     
  47.000          90.000            3.600e+00           3.600e+00             159.174          -1.298e+02             154.227           4.000e+01     
  48.000          90.000            3.479e+00           3.479e+00             159.269          -1.300e+02             152.332           4.000e+01     
  49.000          90.000            3.356e+00           3.356e+00             159.367          -1.301e+02             150.241           4.000e+01     
  50.000          90.000            3.230e+00           3.230e+00             159.467          -1.303e+02             147.950           4.000e+01     
  51.000          90.000            3.103e+00           3.103e+00             159.570          -1.304e+02             145.455           4.000e+01     
  52.000          90.000            2.973e+00           2.973e+00             159.676          -1.305e+02             142.756           4.000e+01     
  53.000          90.000            2.842e+00           2.842e+00             159.784          -1.306e+02             139.857           4.000e+01     
  54.000          90.000            2.709e+00           2.709e+00             159.894          -1.307e+02             136.771           4.000e+01     
  55.000          90.000            2.573e+00           2.573e+00             160.007          -1.307e+02             133.512           4.000e+01     
  56.000          90.000            2.436e+00           2.436e+00             160.123          -1.308e+02             130.102           4.000e+01     
  57.000          90.000            2.297e+00           2.297e+00             160.242          -1.308e+02             126.569           4.000e+01     
  58.000          90.000            2.156e+00           2.156e+00             160.364          -1.307e+02             122.947           4.000e+01     
  59.000          90.000            2.013e+00           2.013e+00             160.488          -1.306e+02             119.274           4.000e+01     
  60.000          90.000            1.869e+00           1.869e+00             160.615          -1.305e+02             115.590           4.000e+01     
  61.000          90.000            1.722e+00           1.722e+00             160.745          -1.304e+02             111.934           4.000e+01     
  62.000          90.000            1.574e+00           1.574e+00             160.878          -1.302e+02             108.345           4.000e+01     
  63.000          90.000            1.424e+00           1.424e+00             161.013          -1.299e+02             104.855           4.000e+01     
  64.000          90.000            1.273e+00           1.273e+00             161.152          -1.297e+02             101.492           4.000e+01     
  65.000          90.000            1.119e+00           1.119e+00             161.294          -1.294e+02              98.278           4.000e+01     
  66.000          90.000            9.645e-01           9.645e-01             161.439          -1.291e+02              95.228           4.000e+01     
  67.000          90.000            8.079e-01           8.079e-01             161.586          -1.288e+02              92.349           4.000e+01     
  68.000          90.000            6.496e-01           6.496e-01             161.737          -1.285e+02              89.647           4.000e+01     
  69.000          90.000            4.897e-01           4.897e-01             161.891          -1.281e+02              87.120           4.000e+01     
  70.000          90.000            3.281e-01           3.281e-01             162.048          -1.278e+02              84.764           4.000e+01     
  71.000          90.000            1.648e-01           1.648e-01             162.209          -1.274e+02              82.573           4.000e+01     
  72.000          90.000           -1.227e-04          -1.227e-04             162.372          -1.271e+02              80.539           4.000e+01     
  73.000          90.000           -1.667e-01          -1.667e-01             162.539          -1.267e+02              78.653           4.000e+01     
  74.000          90.000           -3.350e-01          -3.350e-01             162.709          -1.264e+02              76.905           4.000e+01     
  75.000          90.000           -5.049e-01          -5.049e-01             162.882          -1.260e+02              75.286           4.000e+01     
  76.000          90.000           -6.766e-01          -6.766e-01             163.058          -1.257e+02              73.786           4.000e+01     
  77.000          90.000           -8.500e-01          -8.500e-01             163.238          -1.253e+02              72.396           4.000e+01     
  78.000          90.000           -1.025e+00          -1.025e+00             163.421          -1.250e+02              71.108           4.000e+01     
  79.000          90.000           -1.202e+00          -1.202e+00             163.607          -1.247e+02              69.914           4.000e+01     
  80.000          90.000           -1.381e+00          -1.381e+00             163.796          -1.244e+02              68.805           4.000e+01     
  81.000          90.000           -1.562e+00          -1.562e+00             163.989          -1.241e+02              67.776           4.000e+01     
  82.000          90.000           -1.744e+00          -1.744e+00             164.185          -1.238e+02              66.820           4.000e+01     
  83.000          90.000           -1.929e+00          -1.929e+00             164.384          -1.235e+02              65.931           4.000e+01     
  84.000          90.000           -2.115e+00          -2.115e+00             164.586          -1.232e+02              65.104           4.000e+01     
  85.000          90.000           -2.304e+00          -2.304e+00             164.792          -1.229e+02              64.333           4.000e+01     
  86.000          90.000           -2.495e+00          -2.495e+00             165.000          -1.227e+02              63.616           4.000e+01     
  87.000          90.000           -2.688e+00          -2.688e+00             165.212          -1.224e+02              62.946           4.000e+01     
  88.000          90.000           -2.884e+00          -2.884e+00             165.427          -1.222e+02              62.322           4.000e+01     
  89.000          90.000           -3.082e+00          -3.082e+00             165.645          -1.219e+02              61.739           4.000e+01     
  90.000          90.000           -3.283e+00          -3.283e+00             165.866          -1.217e+02              61.194           4.000e+01     
  91.000          90.000           -3.487e+00          -3.487e+00             166.090          -1.215e+02              60.685           4.000e+01     
  92.000          90.000           -3.693e+00          -3.693e+00             166.317          -1.212e+02              60.210           4.000e+01     
  93.000          90.000           -3.903e+00          -3.903e+00             166.547          -1.210e+02              59.766           4.000e+01     
  94.000          90.000           -4.115e+00          -4.115e+00             166.779          -1.208e+02              59.350           4.000e+01     
  95.000          90.000           -4.331e+00          -4.331e+00             167.015          -1.206e+02              58.961           4.000e+01     
  96.000          90.000           -4.551e+00          -4.551e+00             167.253          -1.204e+02              58.598           4.000e+01     
  97.000          90.000           -4.775e+00          -4.775e+00             167.494          -1.202e+02              58.258           4.000e+01     
  98.000          90.000           -5.002e+00          -5.002e+00             167.737          -1.201e+02              57.940           4.000e+01     
  99.000          90.000           -5.234e+00          -5.234e+00             167.983          -1.199e+02              57.643           4.000e+01     
 100.000          90.000           -5.471e+00          -5.471e+00             168.231          -1.197e+02              57.365           4.000e+01     
 101.000          90.000           -5.712e+00          -5.712e+00             168.482          -1.196e+02              57.106           4.000e+01     
 102.000          90.000           -5.959e+00          -5.959e+00             168.734          -1.194e+02              56.864           4.000e+01     
 103.000          90.000           -6.211e+00          -6.211e+00             168.989          -1.192e+02              56.638           4.000e+01     
 104.000          90.000           -6.470e+00          -6.470e+00             169.246          -1.191e+02              56.428           4.000e+01     
 105.000          90.000           -6.734e+00          -6.734e+00             169.505          -1.190e+02              56.232           4.000e+01     
 106.000          90.000           -7.006e+00          -7.006e+00             169.766          -1.188e+02              56.050           4.000e+01     
 107.000          90.000           -7.285e+00          -7.285e+00             170.029          -1.187e+02              55.881           4.000e+01     
 108.000          90.000           -7.572e+00          -7.572e+00             170.293          -1.186e+02              55.725           4.000e+01     
 109.000          90.000           -7.867e+00          -7.867e+00             170.559          -1.184e+02              55.580           4.000e+01     
 110.000          90.000           -8.172e+00          -8.172e+00             170.826          -1.183e+02              55.446           4.000e+01     
 111.000          90.000           -8.487e+00          -8.487e+00             171.095          -1.182e+02              55.323           4.000e+01     
 112.000          90.000           -8.812e+00          -8.812e+00             171.365          -1.181e+02              55.210           4.000e+01     
 113.000          90.000           -9.149e+00          -9.149e+00             171.637          -1.180e+02              55.106           4.000e+01     
 114.000          90.000           -9.499e+00          -9.499e+00             171.910          -1.179e+02              55.012           4.000e+01     
 115.000          90.000           -9.863e+00          -9.863e+00             172.183          -1.178e+02              54.926           4.000e+01     
 116.000          90.000           -1.024e+01          -1.024e+01             172.458          -1.178e+02              54.848           4.000e+01     
 117.000          90.000           -1.064e+01          -1.064e+01             172.733          -1.177e+02              54.778           4.000e+01     
 118.000          90.000           -1.105e+01          -1.105e+01             173.010          -1.176e+02              54.716           4.000e+01     
 119.000          90.000           -1.149e+01          -1.149e+01             173.287          -1.175e+02              54.660           4.000e+01     
 120.000          90.000           -1.194e+01          -1.194e+01             173.565          -1.175e+02              54.612           4.000e+01     
 121.000          90.000           -1.243e+01          -1.243e+01             173.843          -1.174e+02              54.569           4.000e+01     
 122.000          90.000           -1.294e+01          -1.294e+01             174.122          -1.174e+02              54.533           4.000e+01     
 123.000          90.000           -1.348e+01          -1.348e+01             174.402          -1.173e+02              54.502           4.000e+01     
 124.000          90.000           -1.405e+01          -1.405e+01             174.682          -1.173e+02              54.477           4.000e+01     
 125.000          90.000           -1.467e+01          -1.467e+01             174.963          -1.172e+02              54.457           4.000e+01     
 126.000          90.000           -1.534e+01          -1.534e+01             175.245          -1.172e+02              54.442           4.000e+01     
 127.000          90.000           -1.606e+01          -1.606e+01             175.527          -1.172e+02              54.432           4.000e+01     
 128.000          90.000           -1.684e+01          -1.684e+01             175.811          -1.171e+02              54.425           4.000e+01     
 129.000          90.000           -1.771e+01          -1.771e+01             176.095          -1.171e+02              54.423           4.000e+01     
 130.000          90.000           -1.867e+01          -1.867e+01             176.380          -1.171e+02              54.425           4.000e+01     
 131.000          90.000           -1.974e+01          -1.974e+01             176.668          -1.171e+02              54.431           4.000e+01     
 132.000          90.000           -2.097e+01          -2.097e+01             176.958          -1.171e+02              54.439           4.000e+01     
 133.000          90.000           -2.240e+01          -2.240e+01             177.253          -1.171e+02              54.451           4.000e+01     
 134.000          90.000           -2.411e+01          -2.411e+01             177.557          -1.171e+02              54.466           4.000e+01     
 135.000          90.000           -2.624e+01          -2.624e+01             177.875          -1.171e+02              54.484           4.000e+01     
 136.000          90.000           -2.906e+01          -2.906e+01             178.225          -1.171e+02              54.504           4.000e+01     
 137.000          90.000           -3.325e+01          -3.325e+01             178.668          -1.172e+02              54.526           4.000e+01     
 138.000          90.000           -4.162e+01          -4.162e+01             179.657          -1.172e+02              54.550           4.000e+01     
 139.000          90.000           -4.581e+01          -4.581e+01             356.903          -1.172e+02              54.577           4.000e+01     
 140.000          90.000           -3.466e+01          -3.466e+01             358.530          -1.173e+02              54.605           4.000e+01     
 141.000          90.000           -2.995e+01          -2.995e+01             359.020          -1.173e+02              54.634           4.000e+01     
 142.000          90.000           -2.693e+01          -2.693e+01             359.381          -1.174e+02              54.664           4.000e+01     
 143.000          90.000           -2.470e+01          -2.470e+01             359.701          -1.175e+02              54.696           4.000e+01     
 144.000          90.000           -2.293e+01          -2.293e+01               0.002          -1.175e+02              54.728           4.000e+01     
 145.000          90.000           -2.148e+01          -2.148e+01               0.294          -1.176e+02              54.762           4.000e+01     
 146.000          90.000           -2.024e+01          -2.024e+01               0.580          -1.177e+02              54.795           4.000e+01     
 147.000          90.000           -1.916e+01          -1.916e+01               0.862          -1.178e+02              54.829           4.000e+01     
 148.000          90.000           -1.821e+01          -1.821e+01               1.141          -1.179e+02              54.863           4.000e+01     
 149.000          90.000           -1.737e+01          -1.737e+01               1.418          -1.180e+02              54.897           4.000e+01     
 150.000          90.000           -1.660e+01          -1.660e+01               1.694          -1.181e+02              54.930           4.000e+01     
 151.000          90.000           -1.591e+01          -1.591e+01               1.968          -1.183e+02              54.963           4.000e+01     
 152.000          90.000           -1.527e+01          -1.527e+01               2.242          -1.184e+02              54.995           4.000e+01     
 153.000          90.000           -1.469e+01          -1.469e+01               2.515          -1.185e+02              55.026           4.000e+01     
 154.000          90.000           -1.415e+01          -1.415e+01               2.788          -1.187e+02              55.057           4.000e+01     
 155.000          90.000           -1.365e+01          -1.365e+01               3.061          -1.189e+02              55.085           4.000e+01     
 156.000          90.000           -1.318e+01          -1.318e+01               3.333          -1.190e+02              55.113           4.000e+01     
 157.000          90.000           -1.275e+01          -1.275e+01               3.606          -1.192e+02              55.138           4.000e+01     
 158.000          90.000           -1.234e+01          -1.234e+01               3.879          -1.194e+02              55.162           4.000e+01     
 159.000          90.000           -1.196e+01          -1.196e+01               4.153          -1.196e+02              55.183           4.000e+01     
 160.000          90.000           -1.161e+01          -1.161e+01               4.427          -1.198e+02              55.201           4.000e+01     
 161.000          90.000           -1.128e+01          -1.128e+01               4.701          -1.201e+02              55.217           4.000e+01     
 162.000          90.000           -1.097e+01          -1.097e+01               4.977          -1.203e+02              55.230           4.000e+01     
 163.000          90.000           -1.067e+01          -1.067e+01               5.254          -1.206e+02              55.239           4.000e+01     
 164.000          90.000           -1.040e+01          -1.040e+01               5.532          -1.208e+02              55.244           4.000e+01     
 165.000          90.000           -1.014e+01          -1.014e+01               5.812          -1.211e+02              55.246           4.000e+01     
 166.000          90.000           -9.899e+00          -9.899e+00               6.093          -1.214e+02              55.242           4.000e+01     
 167.000          90.000           -9.673e+00          -9.673e+00               6.376          -1.217e+02              55.234           4.000e+01     
 168.000          90.000           -9.461e+00          -9.461e+00               6.661          -1.221e+02              55.220           4.000e+01     
 169.000          90.000           -9.263e+00          -9.263e+00               6.949          -1.224e+02              55.200           4.000e+01     
 170.000          90.000           -9.079e+00          -9.079e+00               7.239          -1.228e+02              55.173           4.000e+01     
 171.000          90.000           -8.907e+00          -8.907e+00               7.532          -1.232e+02              55.138           4.000e+01     
 172.000          90.000           -8.748e+00          -8.748e+00               7.828          -1.236e+02              55.094           4.000e+01     
 173.000          90.000           -8.601e+00          -8.601e+00               8.128          -1.241e+02              55.040           4.000e+01     
 174.000          90.000           -8.465e+00          -8.465e+00               8.431          -1.246e+02              54.975           4.000e+01     
 175.000          90.000           -8.341e+00          -8.341e+00               8.738          -1.251e+02              54.896           4.000e+01     
 176.000          90.000           -8.227e+00          -8.227e+00               9.050          -1.256e+02              54.802           4.000e+01     
 177.000          90.000           -8.125e+00          -8.125e+00               9.367          -1.262e+02              54.689           4.000e+01     
 178.000          90.000           -8.033e+00          -8.033e+00               9.689          -1.269e+02              54.555           4.000e+01     
 179.000          90.000           -7.951e+00          -7.951e+00              10.017          -1.276e+02              54.393           4.000e+01     
 180.000          90.000           -7.879e+00          -7.879e+00              10.351          -1.283e+02              54.198           4.000e+01     
 179.000         270.000           -7.818e+00          -7.818e+00             190.692          -1.291e+02             233.960           4.000e+01     
 178.000         270.000           -7.766e+00          -7.766e+00             191.040          -1.301e+02             233.666           4.000e+01     
 177.000         270.000           -7.724e+00          -7.724e+00             191.396          -1.311e+02             233.295           4.000e+01     
 176.000         270.000           -7.692e+00          -7.692e+00             191.760          -1.323e+02             232.819           4.000e+01     
 175.000         270.000           -7.669e+00          -7.669e+00             192.134          -1.336e+02             232.185           4.000e+01     
 174.000         270.000           -7.656e+00          -7.656e+00             192.517          -1.351e+02             231.306           4.000e+01     
 173.000         270.000           -7.653e+00          -7.653e+00             192.912          -1.370e+02             230.007           4.000e+01     
 172.000         270.000           -7.659e+00          -7.659e+00             193.317          -1.394e+02             227.902           4.000e+01     
 171.000         270.000           -7.674e+00          -7.674e+00             193.736          -1.427e+02             223.919           4.000e+01     
 170.000         270.000           -7.698e+00          -7.698e+00             194.167          -1.477e+02             213.734           4.000e+01     
 169.000         270.000           -7.733e+00          -7.733e+00             194.614          -1.555e+02             163.931           4.000e+01     
 168.000         270.000           -7.776e+00          -7.776e+00             195.076          -1.499e+02              86.468           4.000e+01     
 167.000         270.000           -7.829e+00          -7.829e+00             195.555          -1.441e+02              71.346           4.000e+01     
 166.000         270.000           -7.891e+00          -7.891e+00             196.053          -1.406e+02              66.260           4.000e+01     
 165.000         270.000           -7.963e+00          -7.963e+00             196.570          -1.381e+02              63.738           4.000e+01     
 164.000         270.000           -8.045e+00          -8.045e+00             197.110          -1.362e+02              62.227           4.000e+01     
 163.000         270.000           -8.137e+00          -8.137e+00             197.673          -1.347e+02              61.214           4.000e+01     
 162.000         270.000           -8.238e+00          -8.238e+00             198.262          -1.334e+02              60.481           4.000e+01     
 161.000         270.000           -8.349e+00          -8.349e+00             198.879          -1.323e+02              59.921           4.000e+01     
 160.000         270.000           -8.470e+00          -8.470e+00             199.526          -1.313e+02              59.474           4.000e+01     
 159.000         270.000           -8.601e+00          -8.601e+00             200.206          -1.305e+02              59.105           4.000e+01     
 158.000         270.000           -8.742e+00          -8.742e+00             200.923          -1.297e+02              58.792           4.000e+01     
 157.000         270.000           -8.894e+00          -8.894e+00             201.679          -1.291e+02              58.520           4.000e+01     
 156.000         270.000           -9.056e+00          -9.056e+00             202.478          -1.285e+02              58.278           4.000e+01     
 155.000         270.000           -9.228e+00          -9.228e+00             203.324          -1.279e+02              58.060           4.000e+01     
 154.000         270.000           -9.412e+00          -9.412e+00             204.223          -1.274e+02              57.859           4.000e+01     
 153.000         270.000           -9.606e+00          -9.606e+00             205.179          -1.269e+02              57.673           4.000e+01     
 152.000         270.000           -9.810e+00          -9.810e+00             206.197          -1.265e+02              57.498           4.000e+01     
 151.000         270.000           -1.003e+01          -1.003e+01             207.285          -1.261e+02              57.332           4.000e+01     
 150.000         270.000           -1.025e+01          -1.025e+01             208.449          -1.258e+02              57.172           4.000e+01     
 149.000         270.000           -1.049e+01          -1.049e+01             209.697          -1.255e+02              57.017           4.000e+01     
 148.000         270.000           -1.074e+01          -1.074e+01             211.038          -1.252e+02              56.867           4.000e+01     
 147.000         270.000           -1.100e+01          -1.100e+01             212.482          -1.249e+02              56.720           4.000e+01     
 146.000         270.000           -1.127e+01          -1.127e+01             214.039          -1.246e+02              56.575           4.000e+01     
 145.000         270.000           -1.154e+01          -1.154e+01             215.722          -1.244e+02              56.432           4.000e+01     
 144.000         270.000           -1.183e+01          -1.183e+01             217.544          -1.242e+02              56.290           4.000e+01     
 143.000         270.000           -1.213e+01          -1.213e+01             219.519          -1.240e+02              56.148           4.000e+01     
 142.000         270.000           -1.243e+01          -1.243e+01             221.663          -1.238e+02              56.007           4.000e+01     
 141.000         270.000           -1.273e+01          -1.273e+01             223.990          -1.236e+02              55.865           4.000e+01     
 140.000         270.000           -1.304e+01          -1.304e+01             226.519          -1.235e+02              55.723           4.000e+01     
 139.000         270.000           -1.334e+01          -1.334e+01             229.264          -1.233e+02              55.580           4.000e+01     
 138.000         270.000           -1.364e+01          -1.364e+01             232.242          -1.232e+02              55.436           4.000e+01     
 137.000         270.000           -1.393e+01          -1.393e+01             235.464          -1.231e+02              55.291           4.000e+01     
 136.000         270.000           -1.421e+01          -1.421e+01             238.939          -1.230e+02              55.144           4.000e+01     
 135.000         270.000           -1.446e+01          -1.446e+01             242.668          -1.229e+02              54.995           4.000e+01     
 134.000         270.000           -1.468e+01          -1.468e+01             246.645          -1.229e+02              54.845           4.000e+01     
 133.000         270.000           -1.487e+01          -1.487e+01             250.853          -1.228e+02              54.692           4.000e+01     
 132.000         270.000           -1.501e+01          -1.501e+01             255.262          -1.227e+02              54.537           4.000e+01     
 131.000         270.000           -1.511e+01          -1.511e+01             259.831          -1.227e+02              54.380           4.000e+01     
 130.000         270.000           -1.515e+01          -1.515e+01             264.505          -1.227e+02              54.219           4.000e+01     
 129.000         270.000           -1.513e+01          -1.513e+01             269.224          -1.226e+02              54.056           4.000e+01     
 128.000         270.000           -1.505e+01          -1.505e+01             273.921          -1.226e+02              53.890           4.000e+01     
 127.000         270.000           -1.492e+01          -1.492e+01             278.534          -1.226e+02              53.721           4.000e+01     
 126.000         270.000           -1.473e+01          -1.473e+01             283.004          -1.226e+02              53.548           4.000e+01     
 125.000         270.000           -1.450e+01          -1.450e+01             287.284          -1.227e+02              53.371           4.000e+01     
 124.000         270.000           -1.423e+01          -1.423e+01             291.340          -1.227e+02              53.191           4.000e+01     
 123.000         270.000           -1.392e+01          -1.392e+01             295.149          -1.227e+02              53.006           4.000e+01     
 122.000         270.000           -1.359e+01          -1.359e+01             298.699          -1.228e+02              52.816           4.000e+01     
 121.000         270.000           -1.324e+01          -1.324e+01             301.990          -1.228e+02              52.622           4.000e+01     
 120.000         270.000           -1.288e+01          -1.288e+01             305.027          -1.229e+02              52.422           4.000e+01     
 119.000         270.000           -1.251e+01          -1.251e+01             307.820          -1.230e+02              52.217           4.000e+01     
 118.000         270.000           -1.213e+01          -1.213e+01             310.385          -1.231e+02              52.005           4.000e+01     
 117.000         270.000           -1.175e+01          -1.175e+01             312.736          -1.231e+02              51.787           4.000e+01     
 116.000         270.000           -1.137e+01          -1.137e+01             314.891          -1.232e+02              51.562           4.000e+01     
 115.000         270.000           -1.100e+01          -1.100e+01             316.865          -1.234e+02              51.329           4.000e+01     
 114.000         270.000           -1.063e+01          -1.063e+01             318.674          -1.235e+02              51.087           4.000e+01     
 113.000         270.000           -1.027e+01          -1.027e+01             320.334          -1.236e+02              50.836           4.000e+01     
 112.000         270.000           -9.912e+00          -9.912e+00             321.857          -1.238e+02              50.575           4.000e+01     
 111.000         270.000           -9.563e+00          -9.563e+00             323.256          -1.239e+02              50.303           4.000e+01     
 110.000         270.000           -9.221e+00          -9.221e+00             324.542          -1.241e+02              50.019           4.000e+01     
 109.000         270.000           -8.887e+00          -8.887e+00             325.726          -1.243e+02              49.721           4.000e+01     
 108.000         270.000           -8.561e+00          -8.561e+00             326.818          -1.245e+02              49.408           4.000e+01     
 107.000         270.000           -8.243e+00          -8.243e+00             327.824          -1.247e+02              49.079           4.000e+01     
 106.000         270.000           -7.932e+00          -7.932e+00             328.754          -1.249e+02              48.732           4.000e+01     
 105.000         270.000           -7.629e+00          -7.629e+00             329.613          -1.251e+02              48.364           4.000e+01     
 104.000         270.000           -7.333e+00          -7.333e+00             330.407          -1.254e+02              47.973           4.000e+01     
 103.000         270.000           -7.044e+00          -7.044e+00             331.143          -1.256e+02              47.556           4.000e+01     
 102.000         270.000           -6.762e+00          -6.762e+00             331.824          -1.259e+02              47.111           4.000e+01     
 101.000         270.000           -6.486e+00          -6.486e+00             332.455          -1.262e+02              46.632           4.000e+01     
 100.000         270.000           -6.217e+00          -6.217e+00             333.041          -1.265e+02              46.115           4.000e+01     
  99.000         270.000           -5.953e+00          -5.953e+00             333.584          -1.268e+02              45.556           4.000e+01     
  98.000         270.000           -5.695e+00          -5.695e+00             334.087          -1.272e+02              44.947           4.000e+01     
  97.000         270.000           -5.443e+00          -5.443e+00             334.555          -1.276e+02              44.280           4.000e+01     
  96.000         270.000           -5.196e+00          -5.196e+00             334.989          -1.280e+02              43.546           4.000e+01     
  95.000         270.000           -4.954e+00          -4.954e+00             335.392          -1.284e+02              42.733           4.000e+01     
  94.000         270.000           -4.717e+00          -4.717e+00             335.766          -1.289e+02              41.827           4.000e+01     
  93.000         270.000           -4.484e+00          -4.484e+00             336.112          -1.294e+02              40.809           4.000e+01     
  92.000         270.000           -4.256e+00          -4.256e+00             336.434          -1.299e+02              39.658           4.000e+01     
  91.000         270.000           -4.032e+00          -4.032e+00             336.731          -1.305e+02              38.342           4.000e+01     
  90.000         270.000           -3.812e+00          -3.812e+00             337.007          -1.311e+02              36.825           4.000e+01     
  89.000         270.000           -3.596e+00          -3.596e+00             337.262          -1.317e+02              35.056           4.000e+01     
  88.000         270.000           -3.384e+00          -3.384e+00             337.498          -1.324e+02              32.968           4.000e+01     
  87.000         270.000           -3.175e+00          -3.175e+00             337.715          -1.332e+02              30.472           4.000e+01     
  86.000         270.000           -2.970e+00          -2.970e+00             337.916          -1.341e+02              27.444           4.000e+01     
  85.000         270.000           -2.767e+00          -2.767e+00             338.100          -1.350e+02              23.713           4.000e+01     
  84.000         270.000           -2.568e+00          -2.568e+00             338.269          -1.360e+02              19.042           4.000e+01     
  83.000         270.000           -2.372e+00          -2.372e+00             338.424          -1.370e+02              13.112           4.000e+01     
  82.000         270.000           -2.178e+00          -2.178e+00             338.566          -1.381e+02               5.524           4.000e+01     
  81.000         270.000           -1.988e+00          -1.988e+00             338.695          -1.390e+02             355.865           4.000e+01     
  80.000         270.000           -1.800e+00          -1.800e+00             338.812          -1.398e+02             343.952           4.000e+01     
  79.000         270.000           -1.614e+00          -1.614e+00             338.917          -1.402e+02             330.245           4.000e+01     
  78.000         270.000           -1.431e+00          -1.431e+00             339.012          -1.401e+02             316.066           4.000e+01     
  77.000         270.000           -1.251e+00          -1.251e+00             339.098          -1.395e+02             303.013           4.000e+01     
  76.000         270.000           -1.072e+00          -1.072e+00             339.173          -1.385e+02             292.060           4.000e+01     
  75.000         270.000           -8.964e-01          -8.964e-01             339.240          -1.375e+02             283.340           4.000e+01     
  74.000         270.000           -7.225e-01          -7.225e-01             339.298          -1.364e+02             276.528           4.000e+01     
  73.000         270.000           -5.507e-01          -5.507e-01             339.348          -1.354e+02             271.201           4.000e+01     
  72.000         270.000           -3.811e-01          -3.811e-01             339.391          -1.344e+02             266.989           4.000e+01     
  71.000         270.000           -2.134e-01          -2.134e-01             339.427          -1.335e+02             263.612           4.000e+01     
  70.000         270.000           -4.774e-02          -4.774e-02             339.455          -1.326e+02             260.863           4.000e+01     
  69.000         270.000            1.160e-01           1.160e-01             339.478          -1.318e+02             258.593           4.000e+01     
  68.000         270.000            2.778e-01           2.778e-01             339.494          -1.311e+02             256.694           4.000e+01     
  67.000         270.000            4.377e-01           4.377e-01             339.505          -1.304e+02             255.087           4.000e+01     
  66.000         270.000            5.958e-01           5.958e-01             339.511          -1.298e+02             253.714           4.000e+01     
  65.000         270.000            7.520e-01           7.520e-01             339.511          -1.292e+02             252.529           4.000e+01     
  64.000         270.000            9.065e-01           9.065e-01             339.507          -1.287e+02             251.499           4.000e+01     
  63.000         270.000            1.059e+00           1.059e+00             339.498          -1.282e+02             250.599           4.000e+01     
  62.000         270.000            1.210e+00           1.210e+00             339.485          -1.277e+02             249.806           4.000e+01     
  61.000         270.000            1.359e+00           1.359e+00             339.469          -1.273e+02             249.105           4.000e+01     
  60.000         270.000            1.506e+00           1.506e+00             339.448          -1.269e+02             248.483           4.000e+01     
  59.000         270.000            1.652e+00           1.652e+00             339.424          -1.265e+02             247.929           4.000e+01     
  58.000         270.000            1.795e+00           1.795e+00             339.397          -1.261e+02             247.435           4.000e+01     
  57.000         270.000            1.937e+00           1.937e+00             339.368          -1.258e+02             246.992           4.000e+01     
  56.000         270.000            2.077e+00           2.077e+00             339.335          -1.254e+02             246.597           4.000e+01     
  55.000         270.000            2.216e+00           2.216e+00             339.300          -1.251e+02             246.242           4.000e+01     
  54.000         270.000            2.352e+00           2.352e+00             339.262          -1.248e+02             245.925           4.000e+01     
  53.000         270.000            2.487e+00           2.487e+00             339.222          -1.246e+02             245.642           4.000e+01     
  52.000         270.000            2.620e+00           2.620e+00             339.181          -1.243e+02             245.390           4.000e+01     
  51.000         270.000            2.751e+00           2.751e+00             339.137          -1.241e+02             245.167           4.000e+01     
  50.000         270.000            2.880e+00           2.880e+00             339.092          -1.239e+02             244.970           4.000e+01     
  49.000         270.000            3.007e+00           3.007e+00             339.045          -1.237e+02             244.797           4.000e+01     
  48.000         270.000            3.133e+00           3.133e+00             338.997          -1.235e+02             244.648           4.000e+01     
  47.000         270.000            3.256e+00           3.256e+00             338.948          -1.233e+02             244.521           4.000e+01     
  46.000         270.000            3.378e+00           3.378e+00             338.898          -1.231e+02             244.415           4.000e+01     
  45.000         270.000            3.497e+00           3.497e+00             338.847          -1.230e+02             244.329           4.000e+01     
  44.000         270.000            3.615e+00           3.615e+00             338.796          -1.228e+02             244.262           4.000e+01     
  43.000         270.000            3.730e+00           3.730e+00             338.743          -1.227e+02             244.214           4.000e+01     
  42.000         270.000            3.844e+00           3.844e+00             338.690          -1.226e+02             244.185           4.000e+01     
  41.000         270.000            3.955e+00           3.955e+00             338.637          -1.225e+02             244.174           4.000e+01     
  40.000         270.000            4.065e+00           4.065e+00             338.584          -1.224e+02             244.180           4.000e+01     
  39.000         270.000            4.172e+00           4.172e+00             338.530          -1.223e+02             244.205           4.000e+01     
  38.000         270.000            4.277e+00           4.277e+00             338.476          -1.222e+02             244.247           4.000e+01     
  37.000         270.000            4.380e+00           4.380e+00             338.423          -1.222e+02             244.308           4.000e+01     
  36.000         270.000            4.481e+00           4.481e+00             338.369          -1.221e+02             244.387           4.000e+01     
  35.000         270.000            4.580e+00           4.580e+00             338.316          -1.221e+02             244.484           4.000e+01     
  34.000         270.000            4.676e+00           4.676e+00             338.264          -1.221e+02             244.600           4.000e+01     
  33.000         270.000            4.770e+00           4.770e+00             338.211          -1.220e+02             244.736           4.000e+01     
  32.000         270.000            4.862e+00           4.862e+00             338.160          -1.220e+02             244.891           4.000e+01     
  31.000         270.000            4.952e+00           4.952e+00             338.108          -1.220e+02             245.068           4.000e+01     
  30.000         270.000            5.039e+00           5.039e+00             338.058          -1.220e+02             245.265           4.000e+01     
  29.000         270.000            5.124e+00           5.124e+00             338.008          -1.221e+02             245.485           4.000e+01     
  28.000         270.000            5.206e+00           5.206e+00             337.959          -1.221e+02             245.729           4.000e+01     
  27.000         270.000            5.286e+00           5.286e+00             337.912          -1.221e+02             245.996           4.000e+01     
  26.000         270.000            5.364e+00           5.364e+00             337.865          -1.222e+02             246.290           4.000e+01     
  25.000         270.000            5.439e+00           5.439e+00             337.819          -1.223e+02             246.610           4.000e+01     
  24.000         270.000            5.511e+00           5.511e+00             337.774          -1.223e+02             246.959           4.000e+01     
  23.000         270.000            5.581e+00           5.581e+00             337.731          -1.224e+02             247.338           4.000e+01     
  22.000         270.000            5.649e+00           5.649e+00             337.688          -1.225e+02             247.749           4.000e+01     
  21.000         270.000            5.714e+00           5.714e+00             337.647          -1.226e+02             248.194           4.000e+01     
  20.000         270.000            5.776e+00           5.776e+00             337.607          -1.228e+02             248.675           4.000e+01     
  19.000         270.000            5.836e+00           5.836e+00             337.569          -1.229e+02             249.195           4.000e+01     
  18.000         270.000            5.893e+00           5.893e+00             337.532          -1.230e+02             249.756           4.000e+01     
  17.000         270.000            5.947e+00           5.947e+00             337.497          -1.232e+02             250.361           4.000e+01     
  16.000         270.000            5.999e+00           5.999e+00             337.463          -1.233e+02             251.013           4.000e+01     
  15.000         270.000            6.048e+00           6.048e+00             337.430          -1.235e+02             251.717           4.000e+01     
  14.000         270.000            6.094e+00           6.094e+00             337.400          -1.237e+02             252.475           4.000e+01     
  13.000         270.000            6.138e+00           6.138e+00             337.370          -1.239e+02             253.292           4.000e+01     
  12.000         270.000            6.179e+00           6.179e+00             337.343          -1.241e+02             254.171           4.000e+01     
  11.000         270.000            6.217e+00           6.217e+00             337.317          -1.243e+02             255.119           4.000e+01     
  10.000         270.000            6.252e+00           6.252e+00             337.293          -1.245e+02             256.140           4.000e+01     
   9.000         270.000            6.284e+00           6.284e+00             337.271          -1.248e+02             257.240           4.000e+01     
   8.000         270.000            6.314e+00           6.314e+00             337.250          -1.250e+02             258.425           4.000e+01     
   7.000         270.000            6.341e+00           6.341e+00             337.231          -1.253e+02             259.701           4.000e+01     
   6.000         270.000            6.365e+00           6.365e+00             337.214          -1.255e+02             261.074           4.000e+01     
   5.000         270.000            6.386e+00           6.386e+00             337.199          -1.258e+02             262.553           4.000e+01     
   4.000         270.000            6.404e+00           6.404e+00             337.186          -1.261e+02             264.143           4.000e+01     
   3.000         270.000            6.419e+00           6.419e+00             337.174          -1.264e+02             265.853           4.000e+01     
   2.000         270.000            6.432e+00           6.432e+00             337.165          -1.266e+02             267.688           4.000e+01     
   1.000         270.000            6.442e+00           6.442e+00             337.157          -1.269e+02             269.655           4.000e+01     
