Theta [deg.]  Phi   [deg.]  Abs(Gain)[dBi   ]   Abs(Theta)[dBi   ]  Phase(Theta)[deg.]  Abs(Phi  )[dBi   ]  Phase(Phi  )[deg.]  Ax.Ratio[dB    ]    
------------------------------------------------------------------------------------------------------------------------------------------------------
   0.000          90.000            2.354e+00           2.354e+00             161.926          -1.407e+02              49.647           4.000e+01     
   1.000          90.000            2.360e+00           2.360e+00             161.983          -1.414e+02              49.780           4.000e+01     
   2.000          90.000            2.362e+00           2.362e+00             162.042          -1.422e+02              49.981           4.000e+01     
   3.000          90.000            2.362e+00           2.362e+00             162.101          -1.431e+02              50.268           4.000e+01     
   4.000          90.000            2.359e+00           2.359e+00             162.162          -1.441e+02              50.669           4.000e+01     
   5.000          90.000            2.353e+00           2.353e+00             162.223          -1.452e+02              51.221           4.000e+01     
   6.000          90.000            2.345e+00           2.345e+00             162.285          -1.465e+02              51.988           4.000e+01     
   7.000          90.000            2.333e+00           2.333e+00             162.347          -1.480e+02              53.082           4.000e+01     
   8.000          90.000            2.319e+00           2.319e+00             162.411          -1.498e+02              54.709           4.000e+01     
   9.000          90.000            2.301e+00           2.301e+00             162.475          -1.521e+02              57.317           4.000e+01     
  10.000          90.000            2.281e+00           2.281e+00             162.541          -1.550e+02              62.051           4.000e+01     
  11.000          90.000            2.259e+00           2.259e+00             162.607          -1.593e+02              72.840           4.000e+01     
  12.000          90.000            2.233e+00           2.233e+00             162.674          -1.652e+02             109.335           4.000e+01     
  13.000          90.000            2.204e+00           2.204e+00             162.742          -1.634e+02             179.550           4.000e+01     
  14.000          90.000            2.173e+00           2.173e+00             162.811          -1.580e+02             203.328           4.000e+01     
  15.000          90.000            2.139e+00           2.139e+00             162.881          -1.543e+02             211.428           4.000e+01     
  16.000          90.000            2.102e+00           2.102e+00             162.952          -1.518e+02             215.389           4.000e+01     
  17.000          90.000            2.062e+00           2.062e+00             163.024          -1.498e+02             217.762           4.000e+01     
  18.000          90.000            2.020e+00           2.020e+00             163.097          -1.483e+02             219.375           4.000e+01     
  19.000          90.000            1.974e+00           1.974e+00             163.171          -1.470e+02             220.574           4.000e+01     
  20.000          90.000            1.926e+00           1.926e+00             163.246          -1.459e+02             221.528           4.000e+01     
  21.000          90.000            1.875e+00           1.875e+00             163.322          -1.449e+02             222.331           4.000e+01     
  22.000          90.000            1.821e+00           1.821e+00             163.398          -1.441e+02             223.036           4.000e+01     
  23.000          90.000            1.765e+00           1.765e+00             163.476          -1.434e+02             223.679           4.000e+01     
  24.000          90.000            1.706e+00           1.706e+00             163.555          -1.427e+02             224.283           4.000e+01     
  25.000          90.000            1.644e+00           1.644e+00             163.635          -1.422e+02             224.866           4.000e+01     
  26.000          90.000            1.579e+00           1.579e+00             163.716          -1.417e+02             225.439           4.000e+01     
  27.000          90.000            1.512e+00           1.512e+00             163.798          -1.412e+02             226.013           4.000e+01     
  28.000          90.000            1.442e+00           1.442e+00             163.881          -1.408e+02             226.594           4.000e+01     
  29.000          90.000            1.369e+00           1.369e+00             163.965          -1.404e+02             227.190           4.000e+01     
  30.000          90.000            1.293e+00           1.293e+00             164.050          -1.401e+02             227.806           4.000e+01     
  31.000          90.000            1.215e+00           1.215e+00             164.137          -1.398e+02             228.446           4.000e+01     
  32.000          90.000            1.134e+00           1.134e+00             164.224          -1.395e+02             229.117           4.000e+01     
  33.000          90.000            1.051e+00           1.051e+00             164.312          -1.393e+02             229.822           4.000e+01     
  34.000          90.000            9.645e-01           9.645e-01             164.402          -1.391e+02             230.565           4.000e+01     
  35.000          90.000            8.757e-01           8.757e-01             164.492          -1.389e+02             231.352           4.000e+01     
  36.000          90.000            7.841e-01           7.841e-01             164.584          -1.387e+02             232.187           4.000e+01     
  37.000          90.000            6.900e-01           6.900e-01             164.677          -1.386e+02             233.073           4.000e+01     
  38.000          90.000            5.933e-01           5.933e-01             164.771          -1.384e+02             234.018           4.000e+01     
  39.000          90.000            4.939e-01           4.939e-01             164.866          -1.383e+02             235.025           4.000e+01     
  40.000          90.000            3.919e-01           3.919e-01             164.962          -1.383e+02             236.100           4.000e+01     
  41.000          90.000            2.873e-01           2.873e-01             165.060          -1.382e+02             237.248           4.000e+01     
  42.000          90.000            1.802e-01           1.802e-01             165.158          -1.381e+02             238.477           4.000e+01     
  43.000          90.000            7.043e-02           7.043e-02             165.258          -1.381e+02             239.791           4.000e+01     
  44.000          90.000           -4.189e-02          -4.189e-02             165.359          -1.381e+02             241.198           4.000e+01     
  45.000          90.000           -1.568e-01          -1.568e-01             165.461          -1.381e+02             242.705           4.000e+01     
  46.000          90.000           -2.742e-01          -2.742e-01             165.564          -1.381e+02             244.318           4.000e+01     
  47.000          90.000           -3.943e-01          -3.943e-01             165.669          -1.381e+02             246.045           4.000e+01     
  48.000          90.000           -5.168e-01          -5.168e-01             165.774          -1.381e+02             247.892           4.000e+01     
  49.000          90.000           -6.420e-01          -6.420e-01             165.881          -1.381e+02             249.867           4.000e+01     
  50.000          90.000           -7.696e-01          -7.696e-01             165.989          -1.382e+02             251.976           4.000e+01     
  51.000          90.000           -8.999e-01          -8.999e-01             166.099          -1.382e+02             254.223           4.000e+01     
  52.000          90.000           -1.033e+00          -1.033e+00             166.209          -1.382e+02             256.613           4.000e+01     
  53.000          90.000           -1.168e+00          -1.168e+00             166.321          -1.383e+02             259.148           4.000e+01     
  54.000          90.000           -1.306e+00          -1.306e+00             166.434          -1.383e+02             261.827           4.000e+01     
  55.000          90.000           -1.446e+00          -1.446e+00             166.548          -1.383e+02             264.648           4.000e+01     
  56.000          90.000           -1.589e+00          -1.589e+00             166.664          -1.383e+02             267.603           4.000e+01     
  57.000          90.000           -1.735e+00          -1.735e+00             166.781          -1.383e+02             270.683           4.000e+01     
  58.000          90.000           -1.883e+00          -1.883e+00             166.899          -1.382e+02             273.873           4.000e+01     
  59.000          90.000           -2.034e+00          -2.034e+00             167.018          -1.382e+02             277.155           4.000e+01     
  60.000          90.000           -2.188e+00          -2.188e+00             167.138          -1.381e+02             280.507           4.000e+01     
  61.000          90.000           -2.344e+00          -2.344e+00             167.260          -1.380e+02             283.904           4.000e+01     
  62.000          90.000           -2.503e+00          -2.503e+00             167.383          -1.378e+02             287.320           4.000e+01     
  63.000          90.000           -2.664e+00          -2.664e+00             167.507          -1.376e+02             290.726           4.000e+01     
  64.000          90.000           -2.828e+00          -2.828e+00             167.632          -1.374e+02             294.096           4.000e+01     
  65.000          90.000           -2.995e+00          -2.995e+00             167.758          -1.372e+02             297.403           4.000e+01     
  66.000          90.000           -3.165e+00          -3.165e+00             167.885          -1.370e+02             300.626           4.000e+01     
  67.000          90.000           -3.338e+00          -3.338e+00             168.014          -1.367e+02             303.744           4.000e+01     
  68.000          90.000           -3.513e+00          -3.513e+00             168.143          -1.364e+02             306.742           4.000e+01     
  69.000          90.000           -3.691e+00          -3.691e+00             168.274          -1.361e+02             309.610           4.000e+01     
  70.000          90.000           -3.873e+00          -3.873e+00             168.405          -1.358e+02             312.339           4.000e+01     
  71.000          90.000           -4.057e+00          -4.057e+00             168.537          -1.354e+02             314.924           4.000e+01     
  72.000          90.000           -4.244e+00          -4.244e+00             168.670          -1.351e+02             317.366           4.000e+01     
  73.000          90.000           -4.435e+00          -4.435e+00             168.804          -1.347e+02             319.666           4.000e+01     
  74.000          90.000           -4.629e+00          -4.629e+00             168.938          -1.344e+02             321.826           4.000e+01     
  75.000          90.000           -4.826e+00          -4.826e+00             169.073          -1.341e+02             323.852           4.000e+01     
  76.000          90.000           -5.027e+00          -5.027e+00             169.209          -1.337e+02             325.750           4.000e+01     
  77.000          90.000           -5.231e+00          -5.231e+00             169.345          -1.334e+02             327.526           4.000e+01     
  78.000          90.000           -5.439e+00          -5.439e+00             169.481          -1.330e+02             329.186           4.000e+01     
  79.000          90.000           -5.650e+00          -5.650e+00             169.617          -1.327e+02             330.739           4.000e+01     
  80.000          90.000           -5.866e+00          -5.866e+00             169.753          -1.323e+02             332.191           4.000e+01     
  81.000          90.000           -6.085e+00          -6.085e+00             169.888          -1.320e+02             333.549           4.000e+01     
  82.000          90.000           -6.309e+00          -6.309e+00             170.023          -1.317e+02             334.819           4.000e+01     
  83.000          90.000           -6.537e+00          -6.537e+00             170.158          -1.314e+02             336.008           4.000e+01     
  84.000          90.000           -6.769e+00          -6.769e+00             170.292          -1.311e+02             337.121           4.000e+01     
  85.000          90.000           -7.007e+00          -7.007e+00             170.424          -1.308e+02             338.164           4.000e+01     
  86.000          90.000           -7.249e+00          -7.249e+00             170.555          -1.305e+02             339.143           4.000e+01     
  87.000          90.000           -7.496e+00          -7.496e+00             170.684          -1.302e+02             340.061           4.000e+01     
  88.000          90.000           -7.749e+00          -7.749e+00             170.811          -1.299e+02             340.924           4.000e+01     
  89.000          90.000           -8.007e+00          -8.007e+00             170.935          -1.296e+02             341.736           4.000e+01     
  90.000          90.000           -8.272e+00          -8.272e+00             171.056          -1.294e+02             342.500           4.000e+01     
  91.000          90.000           -8.543e+00          -8.543e+00             171.174          -1.291e+02             343.220           4.000e+01     
  92.000          90.000           -8.820e+00          -8.820e+00             171.287          -1.289e+02             343.899           4.000e+01     
  93.000          90.000           -9.105e+00          -9.105e+00             171.395          -1.286e+02             344.541           4.000e+01     
  94.000          90.000           -9.397e+00          -9.397e+00             171.498          -1.284e+02             345.148           4.000e+01     
  95.000          90.000           -9.697e+00          -9.697e+00             171.595          -1.282e+02             345.723           4.000e+01     
  96.000          90.000           -1.001e+01          -1.001e+01             171.684          -1.280e+02             346.268           4.000e+01     
  97.000          90.000           -1.032e+01          -1.032e+01             171.764          -1.278e+02             346.786           4.000e+01     
  98.000          90.000           -1.065e+01          -1.065e+01             171.835          -1.276e+02             347.278           4.000e+01     
  99.000          90.000           -1.099e+01          -1.099e+01             171.895          -1.274e+02             347.747           4.000e+01     
 100.000          90.000           -1.134e+01          -1.134e+01             171.943          -1.272e+02             348.194           4.000e+01     
 101.000          90.000           -1.170e+01          -1.170e+01             171.976          -1.270e+02             348.621           4.000e+01     
 102.000          90.000           -1.207e+01          -1.207e+01             171.992          -1.268e+02             349.030           4.000e+01     
 103.000          90.000           -1.246e+01          -1.246e+01             171.989          -1.267e+02             349.422           4.000e+01     
 104.000          90.000           -1.287e+01          -1.287e+01             171.964          -1.265e+02             349.798           4.000e+01     
 105.000          90.000           -1.329e+01          -1.329e+01             171.914          -1.264e+02             350.160           4.000e+01     
 106.000          90.000           -1.373e+01          -1.373e+01             171.834          -1.262e+02             350.510           4.000e+01     
 107.000          90.000           -1.419e+01          -1.419e+01             171.719          -1.261e+02             350.847           4.000e+01     
 108.000          90.000           -1.467e+01          -1.467e+01             171.564          -1.260e+02             351.174           4.000e+01     
 109.000          90.000           -1.518e+01          -1.518e+01             171.360          -1.258e+02             351.492           4.000e+01     
 110.000          90.000           -1.571e+01          -1.571e+01             171.099          -1.257e+02             351.801           4.000e+01     
 111.000          90.000           -1.628e+01          -1.628e+01             170.770          -1.256e+02             352.103           4.000e+01     
 112.000          90.000           -1.688e+01          -1.688e+01             170.357          -1.255e+02             352.398           4.000e+01     
 113.000          90.000           -1.752e+01          -1.752e+01             169.841          -1.254e+02             352.688           4.000e+01     
 114.000          90.000           -1.821e+01          -1.821e+01             169.198          -1.253e+02             352.973           4.000e+01     
 115.000          90.000           -1.895e+01          -1.895e+01             168.395          -1.252e+02             353.254           4.000e+01     
 116.000          90.000           -1.975e+01          -1.975e+01             167.386          -1.251e+02             353.533           4.000e+01     
 117.000          90.000           -2.062e+01          -2.062e+01             166.111          -1.251e+02             353.809           4.000e+01     
 118.000          90.000           -2.157e+01          -2.157e+01             164.477          -1.250e+02             354.084           4.000e+01     
 119.000          90.000           -2.262e+01          -2.262e+01             162.354          -1.250e+02             354.359           4.000e+01     
 120.000          90.000           -2.379e+01          -2.379e+01             159.539          -1.249e+02             354.635           4.000e+01     
 121.000          90.000           -2.510e+01          -2.510e+01             155.715          -1.249e+02             354.912           4.000e+01     
 122.000          90.000           -2.655e+01          -2.655e+01             150.369          -1.248e+02             355.191           4.000e+01     
 123.000          90.000           -2.815e+01          -2.815e+01             142.668          -1.248e+02             355.473           4.000e+01     
 124.000          90.000           -2.979e+01          -2.979e+01             131.360          -1.248e+02             355.760           4.000e+01     
 125.000          90.000           -3.118e+01          -3.118e+01             115.164          -1.247e+02             356.051           4.000e+01     
 126.000          90.000           -3.175e+01          -3.175e+01              94.726          -1.247e+02             356.349           4.000e+01     
 127.000          90.000           -3.116e+01          -3.116e+01              74.426          -1.247e+02             356.653           4.000e+01     
 128.000          90.000           -2.979e+01          -2.979e+01              58.495          -1.247e+02             356.965           4.000e+01     
 129.000          90.000           -2.819e+01          -2.819e+01              47.408          -1.247e+02             357.286           4.000e+01     
 130.000          90.000           -2.664e+01          -2.664e+01              39.857          -1.247e+02             357.617           4.000e+01     
 131.000          90.000           -2.523e+01          -2.523e+01              34.610          -1.248e+02             357.960           4.000e+01     
 132.000          90.000           -2.397e+01          -2.397e+01              30.854          -1.248e+02             358.315           4.000e+01     
 133.000          90.000           -2.285e+01          -2.285e+01              28.088          -1.248e+02             358.683           4.000e+01     
 134.000          90.000           -2.184e+01          -2.184e+01              26.002          -1.249e+02             359.067           4.000e+01     
 135.000          90.000           -2.094e+01          -2.094e+01              24.400          -1.249e+02             359.467           4.000e+01     
 136.000          90.000           -2.011e+01          -2.011e+01              23.150          -1.250e+02             359.886           4.000e+01     
 137.000          90.000           -1.936e+01          -1.936e+01              22.166          -1.251e+02               0.324           4.000e+01     
 138.000          90.000           -1.867e+01          -1.867e+01              21.385          -1.251e+02               0.784           4.000e+01     
 139.000          90.000           -1.803e+01          -1.803e+01              20.763          -1.252e+02               1.267           4.000e+01     
 140.000          90.000           -1.744e+01          -1.744e+01              20.269          -1.253e+02               1.776           4.000e+01     
 141.000          90.000           -1.689e+01          -1.689e+01              19.877          -1.254e+02               2.313           4.000e+01     
 142.000          90.000           -1.637e+01          -1.637e+01              19.570          -1.255e+02               2.881           4.000e+01     
 143.000          90.000           -1.589e+01          -1.589e+01              19.332          -1.256e+02               3.481           4.000e+01     
 144.000          90.000           -1.544e+01          -1.544e+01              19.152          -1.257e+02               4.118           4.000e+01     
 145.000          90.000           -1.501e+01          -1.501e+01              19.021          -1.259e+02               4.793           4.000e+01     
 146.000          90.000           -1.460e+01          -1.460e+01              18.933          -1.260e+02               5.511           4.000e+01     
 147.000          90.000           -1.422e+01          -1.422e+01              18.880          -1.261e+02               6.275           4.000e+01     
 148.000          90.000           -1.386e+01          -1.386e+01              18.859          -1.263e+02               7.089           4.000e+01     
 149.000          90.000           -1.351e+01          -1.351e+01              18.864          -1.265e+02               7.959           4.000e+01     
 150.000          90.000           -1.319e+01          -1.319e+01              18.893          -1.266e+02               8.888           4.000e+01     
 151.000          90.000           -1.287e+01          -1.287e+01              18.943          -1.268e+02               9.882           4.000e+01     
 152.000          90.000           -1.258e+01          -1.258e+01              19.011          -1.270e+02              10.947           4.000e+01     
 153.000          90.000           -1.229e+01          -1.229e+01              19.095          -1.272e+02              12.090           4.000e+01     
 154.000          90.000           -1.203e+01          -1.203e+01              19.194          -1.274e+02              13.317           4.000e+01     
 155.000          90.000           -1.177e+01          -1.177e+01              19.306          -1.276e+02              14.636           4.000e+01     
 156.000          90.000           -1.152e+01          -1.152e+01              19.429          -1.278e+02              16.055           4.000e+01     
 157.000          90.000           -1.129e+01          -1.129e+01              19.563          -1.281e+02              17.583           4.000e+01     
 158.000          90.000           -1.107e+01          -1.107e+01              19.706          -1.283e+02              19.229           4.000e+01     
 159.000          90.000           -1.085e+01          -1.085e+01              19.858          -1.285e+02              21.002           4.000e+01     
 160.000          90.000           -1.065e+01          -1.065e+01              20.017          -1.288e+02              22.914           4.000e+01     
 161.000          90.000           -1.045e+01          -1.045e+01              20.184          -1.290e+02              24.974           4.000e+01     
 162.000          90.000           -1.027e+01          -1.027e+01              20.358          -1.293e+02              27.193           4.000e+01     
 163.000          90.000           -1.009e+01          -1.009e+01              20.537          -1.295e+02              29.578           4.000e+01     
 164.000          90.000           -9.922e+00          -9.922e+00              20.723          -1.298e+02              32.140           4.000e+01     
 165.000          90.000           -9.761e+00          -9.761e+00              20.913          -1.300e+02              34.883           4.000e+01     
 166.000          90.000           -9.608e+00          -9.608e+00              21.109          -1.302e+02              37.812           4.000e+01     
 167.000          90.000           -9.463e+00          -9.463e+00              21.309          -1.304e+02              40.925           4.000e+01     
 168.000          90.000           -9.325e+00          -9.325e+00              21.514          -1.306e+02              44.218           4.000e+01     
 169.000          90.000           -9.194e+00          -9.194e+00              21.724          -1.308e+02              47.680           4.000e+01     
 170.000          90.000           -9.070e+00          -9.070e+00              21.937          -1.309e+02              51.293           4.000e+01     
 171.000          90.000           -8.954e+00          -8.954e+00              22.155          -1.310e+02              55.034           4.000e+01     
 172.000          90.000           -8.843e+00          -8.843e+00              22.377          -1.310e+02              58.873           4.000e+01     
 173.000          90.000           -8.740e+00          -8.740e+00              22.602          -1.311e+02              62.773           4.000e+01     
 174.000          90.000           -8.643e+00          -8.643e+00              22.831          -1.310e+02              66.697           4.000e+01     
 175.000          90.000           -8.552e+00          -8.552e+00              23.065          -1.310e+02              70.603           4.000e+01     
 176.000          90.000           -8.467e+00          -8.467e+00              23.302          -1.309e+02              74.452           4.000e+01     
 177.000          90.000           -8.389e+00          -8.389e+00              23.543          -1.308e+02              78.208           4.000e+01     
 178.000          90.000           -8.317e+00          -8.317e+00              23.788          -1.306e+02              81.841           4.000e+01     
 179.000          90.000           -8.250e+00          -8.250e+00              24.037          -1.304e+02              85.325           4.000e+01     
 180.000          90.000           -8.190e+00          -8.190e+00              24.290          -1.302e+02              88.638           4.000e+01     
 179.000         270.000           -8.135e+00          -8.135e+00             204.548          -1.299e+02             271.776           4.000e+01     
 178.000         270.000           -8.087e+00          -8.087e+00             204.811          -1.297e+02             274.728           4.000e+01     
 177.000         270.000           -8.044e+00          -8.044e+00             205.078          -1.294e+02             277.494           4.000e+01     
 176.000         270.000           -8.006e+00          -8.006e+00             205.349          -1.291e+02             280.077           4.000e+01     
 175.000         270.000           -7.975e+00          -7.975e+00             205.626          -1.288e+02             282.483           4.000e+01     
 174.000         270.000           -7.949e+00          -7.949e+00             205.909          -1.285e+02             284.718           4.000e+01     
 173.000         270.000           -7.928e+00          -7.928e+00             206.197          -1.282e+02             286.793           4.000e+01     
 172.000         270.000           -7.913e+00          -7.913e+00             206.491          -1.279e+02             288.717           4.000e+01     
 171.000         270.000           -7.904e+00          -7.904e+00             206.791          -1.277e+02             290.501           4.000e+01     
 170.000         270.000           -7.900e+00          -7.900e+00             207.098          -1.274e+02             292.154           4.000e+01     
 169.000         270.000           -7.902e+00          -7.902e+00             207.412          -1.271e+02             293.686           4.000e+01     
 168.000         270.000           -7.909e+00          -7.909e+00             207.733          -1.268e+02             295.107           4.000e+01     
 167.000         270.000           -7.921e+00          -7.921e+00             208.062          -1.266e+02             296.425           4.000e+01     
 166.000         270.000           -7.939e+00          -7.939e+00             208.399          -1.263e+02             297.649           4.000e+01     
 165.000         270.000           -7.963e+00          -7.963e+00             208.746          -1.261e+02             298.785           4.000e+01     
 164.000         270.000           -7.992e+00          -7.992e+00             209.102          -1.258e+02             299.842           4.000e+01     
 163.000         270.000           -8.026e+00          -8.026e+00             209.468          -1.256e+02             300.825           4.000e+01     
 162.000         270.000           -8.066e+00          -8.066e+00             209.844          -1.254e+02             301.740           4.000e+01     
 161.000         270.000           -8.111e+00          -8.111e+00             210.232          -1.252e+02             302.593           4.000e+01     
 160.000         270.000           -8.161e+00          -8.161e+00             210.632          -1.250e+02             303.388           4.000e+01     
 159.000         270.000           -8.217e+00          -8.217e+00             211.045          -1.248e+02             304.130           4.000e+01     
 158.000         270.000           -8.278e+00          -8.278e+00             211.471          -1.246e+02             304.822           4.000e+01     
 157.000         270.000           -8.345e+00          -8.345e+00             211.913          -1.244e+02             305.470           4.000e+01     
 156.000         270.000           -8.418e+00          -8.418e+00             212.370          -1.242e+02             306.075           4.000e+01     
 155.000         270.000           -8.495e+00          -8.495e+00             212.843          -1.241e+02             306.641           4.000e+01     
 154.000         270.000           -8.578e+00          -8.578e+00             213.335          -1.239e+02             307.170           4.000e+01     
 153.000         270.000           -8.667e+00          -8.667e+00             213.845          -1.238e+02             307.666           4.000e+01     
 152.000         270.000           -8.761e+00          -8.761e+00             214.376          -1.236e+02             308.130           4.000e+01     
 151.000         270.000           -8.860e+00          -8.860e+00             214.928          -1.235e+02             308.565           4.000e+01     
 150.000         270.000           -8.965e+00          -8.965e+00             215.504          -1.233e+02             308.972           4.000e+01     
 149.000         270.000           -9.076e+00          -9.076e+00             216.104          -1.232e+02             309.353           4.000e+01     
 148.000         270.000           -9.192e+00          -9.192e+00             216.732          -1.231e+02             309.710           4.000e+01     
 147.000         270.000           -9.313e+00          -9.313e+00             217.387          -1.230e+02             310.044           4.000e+01     
 146.000         270.000           -9.440e+00          -9.440e+00             218.073          -1.229e+02             310.357           4.000e+01     
 145.000         270.000           -9.572e+00          -9.572e+00             218.791          -1.228e+02             310.649           4.000e+01     
 144.000         270.000           -9.709e+00          -9.709e+00             219.545          -1.227e+02             310.922           4.000e+01     
 143.000         270.000           -9.851e+00          -9.851e+00             220.336          -1.226e+02             311.177           4.000e+01     
 142.000         270.000           -9.999e+00          -9.999e+00             221.166          -1.226e+02             311.415           4.000e+01     
 141.000         270.000           -1.015e+01          -1.015e+01             222.040          -1.225e+02             311.637           4.000e+01     
 140.000         270.000           -1.031e+01          -1.031e+01             222.959          -1.224e+02             311.842           4.000e+01     
 139.000         270.000           -1.047e+01          -1.047e+01             223.928          -1.224e+02             312.033           4.000e+01     
 138.000         270.000           -1.064e+01          -1.064e+01             224.949          -1.223e+02             312.209           4.000e+01     
 137.000         270.000           -1.081e+01          -1.081e+01             226.027          -1.222e+02             312.372           4.000e+01     
 136.000         270.000           -1.098e+01          -1.098e+01             227.164          -1.222e+02             312.521           4.000e+01     
 135.000         270.000           -1.116e+01          -1.116e+01             228.366          -1.222e+02             312.658           4.000e+01     
 134.000         270.000           -1.135e+01          -1.135e+01             229.637          -1.221e+02             312.782           4.000e+01     
 133.000         270.000           -1.153e+01          -1.153e+01             230.980          -1.221e+02             312.894           4.000e+01     
 132.000         270.000           -1.172e+01          -1.172e+01             232.401          -1.221e+02             312.994           4.000e+01     
 131.000         270.000           -1.190e+01          -1.190e+01             233.903          -1.221e+02             313.083           4.000e+01     
 130.000         270.000           -1.209e+01          -1.209e+01             235.493          -1.220e+02             313.161           4.000e+01     
 129.000         270.000           -1.228e+01          -1.228e+01             237.173          -1.220e+02             313.228           4.000e+01     
 128.000         270.000           -1.247e+01          -1.247e+01             238.949          -1.220e+02             313.284           4.000e+01     
 127.000         270.000           -1.265e+01          -1.265e+01             240.825          -1.220e+02             313.329           4.000e+01     
 126.000         270.000           -1.283e+01          -1.283e+01             242.803          -1.220e+02             313.364           4.000e+01     
 125.000         270.000           -1.301e+01          -1.301e+01             244.887          -1.220e+02             313.389           4.000e+01     
 124.000         270.000           -1.318e+01          -1.318e+01             247.078          -1.221e+02             313.403           4.000e+01     
 123.000         270.000           -1.334e+01          -1.334e+01             249.376          -1.221e+02             313.406           4.000e+01     
 122.000         270.000           -1.348e+01          -1.348e+01             251.780          -1.221e+02             313.400           4.000e+01     
 121.000         270.000           -1.362e+01          -1.362e+01             254.288          -1.221e+02             313.383           4.000e+01     
 120.000         270.000           -1.374e+01          -1.374e+01             256.894          -1.222e+02             313.355           4.000e+01     
 119.000         270.000           -1.384e+01          -1.384e+01             259.592          -1.222e+02             313.317           4.000e+01     
 118.000         270.000           -1.392e+01          -1.392e+01             262.371          -1.222e+02             313.268           4.000e+01     
 117.000         270.000           -1.399e+01          -1.399e+01             265.220          -1.223e+02             313.208           4.000e+01     
 116.000         270.000           -1.403e+01          -1.403e+01             268.125          -1.223e+02             313.138           4.000e+01     
 115.000         270.000           -1.404e+01          -1.404e+01             271.070          -1.224e+02             313.056           4.000e+01     
 114.000         270.000           -1.403e+01          -1.403e+01             274.039          -1.224e+02             312.963           4.000e+01     
 113.000         270.000           -1.400e+01          -1.400e+01             277.012          -1.225e+02             312.858           4.000e+01     
 112.000         270.000           -1.394e+01          -1.394e+01             279.972          -1.226e+02             312.742           4.000e+01     
 111.000         270.000           -1.386e+01          -1.386e+01             282.901          -1.226e+02             312.613           4.000e+01     
 110.000         270.000           -1.375e+01          -1.375e+01             285.782          -1.227e+02             312.471           4.000e+01     
 109.000         270.000           -1.362e+01          -1.362e+01             288.599          -1.228e+02             312.317           4.000e+01     
 108.000         270.000           -1.347e+01          -1.347e+01             291.339          -1.228e+02             312.150           4.000e+01     
 107.000         270.000           -1.330e+01          -1.330e+01             293.992          -1.229e+02             311.969           4.000e+01     
 106.000         270.000           -1.312e+01          -1.312e+01             296.547          -1.230e+02             311.775           4.000e+01     
 105.000         270.000           -1.292e+01          -1.292e+01             298.999          -1.231e+02             311.565           4.000e+01     
 104.000         270.000           -1.270e+01          -1.270e+01             301.342          -1.232e+02             311.341           4.000e+01     
 103.000         270.000           -1.248e+01          -1.248e+01             303.575          -1.233e+02             311.102           4.000e+01     
 102.000         270.000           -1.224e+01          -1.224e+01             305.697          -1.234e+02             310.847           4.000e+01     
 101.000         270.000           -1.200e+01          -1.200e+01             307.708          -1.235e+02             310.575           4.000e+01     
 100.000         270.000           -1.175e+01          -1.175e+01             309.610          -1.236e+02             310.286           4.000e+01     
  99.000         270.000           -1.150e+01          -1.150e+01             311.407          -1.237e+02             309.979           4.000e+01     
  98.000         270.000           -1.124e+01          -1.124e+01             313.102          -1.238e+02             309.655           4.000e+01     
  97.000         270.000           -1.098e+01          -1.098e+01             314.698          -1.239e+02             309.311           4.000e+01     
  96.000         270.000           -1.072e+01          -1.072e+01             316.201          -1.241e+02             308.948           4.000e+01     
  95.000         270.000           -1.046e+01          -1.046e+01             317.615          -1.242e+02             308.564           4.000e+01     
  94.000         270.000           -1.020e+01          -1.020e+01             318.944          -1.243e+02             308.160           4.000e+01     
  93.000         270.000           -9.937e+00          -9.937e+00             320.193          -1.244e+02             307.733           4.000e+01     
  92.000         270.000           -9.679e+00          -9.679e+00             321.368          -1.246e+02             307.285           4.000e+01     
  91.000         270.000           -9.422e+00          -9.422e+00             322.471          -1.247e+02             306.812           4.000e+01     
  90.000         270.000           -9.167e+00          -9.167e+00             323.508          -1.248e+02             306.316           4.000e+01     
  89.000         270.000           -8.915e+00          -8.915e+00             324.483          -1.250e+02             305.795           4.000e+01     
  88.000         270.000           -8.665e+00          -8.665e+00             325.399          -1.251e+02             305.249           4.000e+01     
  87.000         270.000           -8.418e+00          -8.418e+00             326.260          -1.253e+02             304.676           4.000e+01     
  86.000         270.000           -8.174e+00          -8.174e+00             327.070          -1.254e+02             304.075           4.000e+01     
  85.000         270.000           -7.933e+00          -7.933e+00             327.831          -1.255e+02             303.446           4.000e+01     
  84.000         270.000           -7.695e+00          -7.695e+00             328.548          -1.257e+02             302.789           4.000e+01     
  83.000         270.000           -7.461e+00          -7.461e+00             329.222          -1.258e+02             302.101           4.000e+01     
  82.000         270.000           -7.229e+00          -7.229e+00             329.857          -1.260e+02             301.383           4.000e+01     
  81.000         270.000           -7.001e+00          -7.001e+00             330.455          -1.262e+02             300.634           4.000e+01     
  80.000         270.000           -6.776e+00          -6.776e+00             331.018          -1.263e+02             299.853           4.000e+01     
  79.000         270.000           -6.554e+00          -6.554e+00             331.549          -1.265e+02             299.039           4.000e+01     
  78.000         270.000           -6.336e+00          -6.336e+00             332.049          -1.266e+02             298.192           4.000e+01     
  77.000         270.000           -6.120e+00          -6.120e+00             332.520          -1.268e+02             297.312           4.000e+01     
  76.000         270.000           -5.908e+00          -5.908e+00             332.965          -1.269e+02             296.397           4.000e+01     
  75.000         270.000           -5.699e+00          -5.699e+00             333.384          -1.271e+02             295.449           4.000e+01     
  74.000         270.000           -5.493e+00          -5.493e+00             333.780          -1.272e+02             294.466           4.000e+01     
  73.000         270.000           -5.290e+00          -5.290e+00             334.154          -1.274e+02             293.448           4.000e+01     
  72.000         270.000           -5.091e+00          -5.091e+00             334.507          -1.276e+02             292.396           4.000e+01     
  71.000         270.000           -4.894e+00          -4.894e+00             334.840          -1.277e+02             291.310           4.000e+01     
  70.000         270.000           -4.700e+00          -4.700e+00             335.155          -1.279e+02             290.190           4.000e+01     
  69.000         270.000           -4.509e+00          -4.509e+00             335.453          -1.280e+02             289.038           4.000e+01     
  68.000         270.000           -4.321e+00          -4.321e+00             335.735          -1.282e+02             287.853           4.000e+01     
  67.000         270.000           -4.136e+00          -4.136e+00             336.001          -1.283e+02             286.637           4.000e+01     
  66.000         270.000           -3.953e+00          -3.953e+00             336.252          -1.285e+02             285.392           4.000e+01     
  65.000         270.000           -3.773e+00          -3.773e+00             336.491          -1.286e+02             284.118           4.000e+01     
  64.000         270.000           -3.597e+00          -3.597e+00             336.716          -1.287e+02             282.817           4.000e+01     
  63.000         270.000           -3.422e+00          -3.422e+00             336.930          -1.289e+02             281.492           4.000e+01     
  62.000         270.000           -3.251e+00          -3.251e+00             337.132          -1.290e+02             280.145           4.000e+01     
  61.000         270.000           -3.082e+00          -3.082e+00             337.324          -1.291e+02             278.777           4.000e+01     
  60.000         270.000           -2.916e+00          -2.916e+00             337.506          -1.292e+02             277.392           4.000e+01     
  59.000         270.000           -2.752e+00          -2.752e+00             337.678          -1.294e+02             275.993           4.000e+01     
  58.000         270.000           -2.591e+00          -2.591e+00             337.842          -1.295e+02             274.581           4.000e+01     
  57.000         270.000           -2.432e+00          -2.432e+00             337.997          -1.296e+02             273.161           4.000e+01     
  56.000         270.000           -2.276e+00          -2.276e+00             338.145          -1.297e+02             271.735           4.000e+01     
  55.000         270.000           -2.123e+00          -2.123e+00             338.285          -1.298e+02             270.307           4.000e+01     
  54.000         270.000           -1.972e+00          -1.972e+00             338.418          -1.299e+02             268.879           4.000e+01     
  53.000         270.000           -1.824e+00          -1.824e+00             338.545          -1.300e+02             267.455           4.000e+01     
  52.000         270.000           -1.678e+00          -1.678e+00             338.666          -1.301e+02             266.038           4.000e+01     
  51.000         270.000           -1.535e+00          -1.535e+00             338.781          -1.301e+02             264.631           4.000e+01     
  50.000         270.000           -1.394e+00          -1.394e+00             338.891          -1.302e+02             263.236           4.000e+01     
  49.000         270.000           -1.256e+00          -1.256e+00             338.996          -1.303e+02             261.858           4.000e+01     
  48.000         270.000           -1.120e+00          -1.120e+00             339.096          -1.304e+02             260.497           4.000e+01     
  47.000         270.000           -9.865e-01          -9.865e-01             339.191          -1.304e+02             259.157           4.000e+01     
  46.000         270.000           -8.556e-01          -8.556e-01             339.283          -1.305e+02             257.840           4.000e+01     
  45.000         270.000           -7.272e-01          -7.272e-01             339.371          -1.306e+02             256.548           4.000e+01     
  44.000         270.000           -6.014e-01          -6.014e-01             339.455          -1.306e+02             255.282           4.000e+01     
  43.000         270.000           -4.780e-01          -4.780e-01             339.536          -1.307e+02             254.045           4.000e+01     
  42.000         270.000           -3.571e-01          -3.571e-01             339.614          -1.308e+02             252.837           4.000e+01     
  41.000         270.000           -2.388e-01          -2.388e-01             339.688          -1.308e+02             251.660           4.000e+01     
  40.000         270.000           -1.229e-01          -1.229e-01             339.761          -1.309e+02             250.515           4.000e+01     
  39.000         270.000           -9.525e-03          -9.525e-03             339.830          -1.310e+02             249.402           4.000e+01     
  38.000         270.000            1.013e-01           1.013e-01             339.898          -1.310e+02             248.322           4.000e+01     
  37.000         270.000            2.096e-01           2.096e-01             339.963          -1.311e+02             247.275           4.000e+01     
  36.000         270.000            3.154e-01           3.154e-01             340.026          -1.312e+02             246.262           4.000e+01     
  35.000         270.000            4.186e-01           4.186e-01             340.088          -1.313e+02             245.282           4.000e+01     
  34.000         270.000            5.193e-01           5.193e-01             340.148          -1.313e+02             244.337           4.000e+01     
  33.000         270.000            6.175e-01           6.175e-01             340.206          -1.314e+02             243.424           4.000e+01     
  32.000         270.000            7.130e-01           7.130e-01             340.263          -1.315e+02             242.545           4.000e+01     
  31.000         270.000            8.060e-01           8.060e-01             340.319          -1.316e+02             241.698           4.000e+01     
  30.000         270.000            8.964e-01           8.964e-01             340.374          -1.317e+02             240.884           4.000e+01     
  29.000         270.000            9.841e-01           9.841e-01             340.428          -1.318e+02             240.102           4.000e+01     
  28.000         270.000            1.069e+00           1.069e+00             340.480          -1.319e+02             239.352           4.000e+01     
  27.000         270.000            1.152e+00           1.152e+00             340.533          -1.320e+02             238.632           4.000e+01     
  26.000         270.000            1.232e+00           1.232e+00             340.584          -1.322e+02             237.943           4.000e+01     
  25.000         270.000            1.309e+00           1.309e+00             340.635          -1.323e+02             237.284           4.000e+01     
  24.000         270.000            1.384e+00           1.384e+00             340.685          -1.324e+02             236.654           4.000e+01     
  23.000         270.000            1.456e+00           1.456e+00             340.736          -1.326e+02             236.052           4.000e+01     
  22.000         270.000            1.525e+00           1.525e+00             340.785          -1.328e+02             235.479           4.000e+01     
  21.000         270.000            1.592e+00           1.592e+00             340.835          -1.329e+02             234.933           4.000e+01     
  20.000         270.000            1.655e+00           1.655e+00             340.884          -1.331e+02             234.415           4.000e+01     
  19.000         270.000            1.717e+00           1.717e+00             340.934          -1.333e+02             233.923           4.000e+01     
  18.000         270.000            1.775e+00           1.775e+00             340.983          -1.335e+02             233.457           4.000e+01     
  17.000         270.000            1.831e+00           1.831e+00             341.032          -1.337e+02             233.017           4.000e+01     
  16.000         270.000            1.884e+00           1.884e+00             341.082          -1.340e+02             232.602           4.000e+01     
  15.000         270.000            1.934e+00           1.934e+00             341.131          -1.342e+02             232.213           4.000e+01     
  14.000         270.000            1.982e+00           1.982e+00             341.181          -1.345e+02             231.849           4.000e+01     
  13.000         270.000            2.027e+00           2.027e+00             341.231          -1.348e+02             231.509           4.000e+01     
  12.000         270.000            2.069e+00           2.069e+00             341.282          -1.351e+02             231.195           4.000e+01     
  11.000         270.000            2.108e+00           2.108e+00             341.332          -1.354e+02             230.905           4.000e+01     
  10.000         270.000            2.144e+00           2.144e+00             341.384          -1.357e+02             230.641           4.000e+01     
   9.000         270.000            2.178e+00           2.178e+00             341.435          -1.361e+02             230.403           4.000e+01     
   8.000         270.000            2.209e+00           2.209e+00             341.487          -1.365e+02             230.192           4.000e+01     
   7.000         270.000            2.237e+00           2.237e+00             341.540          -1.369e+02             230.007           4.000e+01     
   6.000         270.000            2.262e+00           2.262e+00             341.593          -1.373e+02             229.851           4.000e+01     
   5.000         270.000            2.285e+00           2.285e+00             341.647          -1.378e+02             229.725           4.000e+01     
   4.000         270.000            2.304e+00           2.304e+00             341.701          -1.383e+02             229.632           4.000e+01     
   3.000         270.000            2.321e+00           2.321e+00             341.756          -1.388e+02             229.573           4.000e+01     
   2.000         270.000            2.335e+00           2.335e+00             341.812          -1.394e+02             229.552           4.000e+01     
   1.000         270.000            2.346e+00           2.346e+00             341.868          -1.400e+02             229.575           4.000e+01     
