Theta [deg.]  Phi   [deg.]  Abs(Gain)[dBi   ]   Abs(Theta)[dBi   ]  Phase(Theta)[deg.]  Abs(Phi  )[dBi   ]  Phase(Phi  )[deg.]  Ax.Ratio[dB    ]    
------------------------------------------------------------------------------------------------------------------------------------------------------
   0.000          90.000            2.815e+00           2.815e+00             273.482          -1.267e+02             170.937           4.000e+01     
   1.000          90.000            2.822e+00           2.822e+00             273.521          -1.270e+02             170.200           4.000e+01     
   2.000          90.000            2.826e+00           2.826e+00             273.562          -1.273e+02             169.435           4.000e+01     
   3.000          90.000            2.828e+00           2.828e+00             273.604          -1.276e+02             168.641           4.000e+01     
   4.000          90.000            2.827e+00           2.827e+00             273.647          -1.279e+02             167.814           4.000e+01     
   5.000          90.000            2.823e+00           2.823e+00             273.691          -1.282e+02             166.951           4.000e+01     
   6.000          90.000            2.816e+00           2.816e+00             273.736          -1.285e+02             166.047           4.000e+01     
   7.000          90.000            2.807e+00           2.807e+00             273.783          -1.288e+02             165.100           4.000e+01     
   8.000          90.000            2.794e+00           2.794e+00             273.830          -1.292e+02             164.103           4.000e+01     
   9.000          90.000            2.779e+00           2.779e+00             273.879          -1.295e+02             163.053           4.000e+01     
  10.000          90.000            2.762e+00           2.762e+00             273.929          -1.299e+02             161.942           4.000e+01     
  11.000          90.000            2.741e+00           2.741e+00             273.980          -1.302e+02             160.765           4.000e+01     
  12.000          90.000            2.717e+00           2.717e+00             274.032          -1.306e+02             159.516           4.000e+01     
  13.000          90.000            2.691e+00           2.691e+00             274.085          -1.310e+02             158.186           4.000e+01     
  14.000          90.000            2.662e+00           2.662e+00             274.140          -1.314e+02             156.769           4.000e+01     
  15.000          90.000            2.631e+00           2.631e+00             274.196          -1.317e+02             155.256           4.000e+01     
  16.000          90.000            2.596e+00           2.596e+00             274.253          -1.321e+02             153.638           4.000e+01     
  17.000          90.000            2.559e+00           2.559e+00             274.312          -1.325e+02             151.906           4.000e+01     
  18.000          90.000            2.519e+00           2.519e+00             274.372          -1.330e+02             150.052           4.000e+01     
  19.000          90.000            2.476e+00           2.476e+00             274.433          -1.334e+02             148.067           4.000e+01     
  20.000          90.000            2.430e+00           2.430e+00             274.496          -1.338e+02             145.943           4.000e+01     
  21.000          90.000            2.382e+00           2.382e+00             274.559          -1.342e+02             143.672           4.000e+01     
  22.000          90.000            2.331e+00           2.331e+00             274.625          -1.346e+02             141.251           4.000e+01     
  23.000          90.000            2.277e+00           2.277e+00             274.691          -1.349e+02             138.677           4.000e+01     
  24.000          90.000            2.221e+00           2.221e+00             274.759          -1.353e+02             135.952           4.000e+01     
  25.000          90.000            2.161e+00           2.161e+00             274.829          -1.356e+02             133.082           4.000e+01     
  26.000          90.000            2.099e+00           2.099e+00             274.900          -1.360e+02             130.078           4.000e+01     
  27.000          90.000            2.035e+00           2.035e+00             274.972          -1.363e+02             126.958           4.000e+01     
  28.000          90.000            1.967e+00           1.967e+00             275.046          -1.365e+02             123.746           4.000e+01     
  29.000          90.000            1.897e+00           1.897e+00             275.121          -1.368e+02             120.472           4.000e+01     
  30.000          90.000            1.825e+00           1.825e+00             275.198          -1.370e+02             117.171           4.000e+01     
  31.000          90.000            1.749e+00           1.749e+00             275.276          -1.371e+02             113.881           4.000e+01     
  32.000          90.000            1.671e+00           1.671e+00             275.356          -1.372e+02             110.643           4.000e+01     
  33.000          90.000            1.590e+00           1.590e+00             275.438          -1.373e+02             107.496           4.000e+01     
  34.000          90.000            1.507e+00           1.507e+00             275.521          -1.373e+02             104.475           4.000e+01     
  35.000          90.000            1.421e+00           1.421e+00             275.606          -1.373e+02             101.614           4.000e+01     
  36.000          90.000            1.332e+00           1.332e+00             275.693          -1.373e+02              98.938           4.000e+01     
  37.000          90.000            1.241e+00           1.241e+00             275.781          -1.372e+02              96.466           4.000e+01     
  38.000          90.000            1.147e+00           1.147e+00             275.871          -1.372e+02              94.212           4.000e+01     
  39.000          90.000            1.051e+00           1.051e+00             275.963          -1.371e+02              92.185           4.000e+01     
  40.000          90.000            9.517e-01           9.517e-01             276.057          -1.369e+02              90.386           4.000e+01     
  41.000          90.000            8.501e-01           8.501e-01             276.152          -1.368e+02              88.815           4.000e+01     
  42.000          90.000            7.459e-01           7.459e-01             276.250          -1.367e+02              87.467           4.000e+01     
  43.000          90.000            6.391e-01           6.391e-01             276.349          -1.365e+02              86.335           4.000e+01     
  44.000          90.000            5.298e-01           5.298e-01             276.451          -1.364e+02              85.412           4.000e+01     
  45.000          90.000            4.179e-01           4.179e-01             276.555          -1.362e+02              84.687           4.000e+01     
  46.000          90.000            3.035e-01           3.035e-01             276.660          -1.361e+02              84.152           4.000e+01     
  47.000          90.000            1.866e-01           1.866e-01             276.768          -1.359e+02              83.795           4.000e+01     
  48.000          90.000            6.713e-02           6.713e-02             276.878          -1.358e+02              83.606           4.000e+01     
  49.000          90.000           -5.485e-02          -5.485e-02             276.990          -1.356e+02              83.574           4.000e+01     
  50.000          90.000           -1.794e-01          -1.794e-01             277.105          -1.354e+02              83.690           4.000e+01     
  51.000          90.000           -3.064e-01          -3.064e-01             277.222          -1.353e+02              83.943           4.000e+01     
  52.000          90.000           -4.359e-01          -4.359e-01             277.342          -1.351e+02              84.323           4.000e+01     
  53.000          90.000           -5.679e-01          -5.679e-01             277.464          -1.350e+02              84.821           4.000e+01     
  54.000          90.000           -7.025e-01          -7.025e-01             277.588          -1.348e+02              85.425           4.000e+01     
  55.000          90.000           -8.395e-01          -8.395e-01             277.716          -1.346e+02              86.128           4.000e+01     
  56.000          90.000           -9.790e-01          -9.790e-01             277.846          -1.344e+02              86.922           4.000e+01     
  57.000          90.000           -1.121e+00          -1.121e+00             277.978          -1.343e+02              87.793           4.000e+01     
  58.000          90.000           -1.266e+00          -1.266e+00             278.114          -1.341e+02              88.733           4.000e+01     
  59.000          90.000           -1.413e+00          -1.413e+00             278.253          -1.339e+02              89.735           4.000e+01     
  60.000          90.000           -1.562e+00          -1.562e+00             278.394          -1.337e+02              90.789           4.000e+01     
  61.000          90.000           -1.715e+00          -1.715e+00             278.539          -1.335e+02              91.887           4.000e+01     
  62.000          90.000           -1.869e+00          -1.869e+00             278.687          -1.333e+02              93.022           4.000e+01     
  63.000          90.000           -2.027e+00          -2.027e+00             278.839          -1.331e+02              94.184           4.000e+01     
  64.000          90.000           -2.187e+00          -2.187e+00             278.993          -1.329e+02              95.368           4.000e+01     
  65.000          90.000           -2.349e+00          -2.349e+00             279.151          -1.327e+02              96.566           4.000e+01     
  66.000          90.000           -2.514e+00          -2.514e+00             279.313          -1.325e+02              97.772           4.000e+01     
  67.000          90.000           -2.682e+00          -2.682e+00             279.479          -1.323e+02              98.981           4.000e+01     
  68.000          90.000           -2.853e+00          -2.853e+00             279.648          -1.321e+02             100.186           4.000e+01     
  69.000          90.000           -3.026e+00          -3.026e+00             279.821          -1.319e+02             101.383           4.000e+01     
  70.000          90.000           -3.202e+00          -3.202e+00             279.998          -1.316e+02             102.568           4.000e+01     
  71.000          90.000           -3.381e+00          -3.381e+00             280.179          -1.314e+02             103.738           4.000e+01     
  72.000          90.000           -3.563e+00          -3.563e+00             280.364          -1.312e+02             104.889           4.000e+01     
  73.000          90.000           -3.748e+00          -3.748e+00             280.554          -1.310e+02             106.019           4.000e+01     
  74.000          90.000           -3.936e+00          -3.936e+00             280.748          -1.308e+02             107.125           4.000e+01     
  75.000          90.000           -4.126e+00          -4.126e+00             280.947          -1.305e+02             108.207           4.000e+01     
  76.000          90.000           -4.320e+00          -4.320e+00             281.151          -1.303e+02             109.262           4.000e+01     
  77.000          90.000           -4.517e+00          -4.517e+00             281.359          -1.301e+02             110.290           4.000e+01     
  78.000          90.000           -4.718e+00          -4.718e+00             281.572          -1.299e+02             111.291           4.000e+01     
  79.000          90.000           -4.921e+00          -4.921e+00             281.791          -1.296e+02             112.263           4.000e+01     
  80.000          90.000           -5.129e+00          -5.129e+00             282.014          -1.294e+02             113.208           4.000e+01     
  81.000          90.000           -5.340e+00          -5.340e+00             282.243          -1.292e+02             114.124           4.000e+01     
  82.000          90.000           -5.554e+00          -5.554e+00             282.478          -1.290e+02             115.013           4.000e+01     
  83.000          90.000           -5.773e+00          -5.773e+00             282.719          -1.288e+02             115.876           4.000e+01     
  84.000          90.000           -5.995e+00          -5.995e+00             282.965          -1.286e+02             116.712           4.000e+01     
  85.000          90.000           -6.222e+00          -6.222e+00             283.218          -1.284e+02             117.523           4.000e+01     
  86.000          90.000           -6.453e+00          -6.453e+00             283.477          -1.282e+02             118.309           4.000e+01     
  87.000          90.000           -6.688e+00          -6.688e+00             283.742          -1.280e+02             119.072           4.000e+01     
  88.000          90.000           -6.928e+00          -6.928e+00             284.015          -1.278e+02             119.812           4.000e+01     
  89.000          90.000           -7.174e+00          -7.174e+00             284.294          -1.276e+02             120.531           4.000e+01     
  90.000          90.000           -7.424e+00          -7.424e+00             284.581          -1.274e+02             121.229           4.000e+01     
  91.000          90.000           -7.680e+00          -7.680e+00             284.875          -1.273e+02             121.909           4.000e+01     
  92.000          90.000           -7.941e+00          -7.941e+00             285.178          -1.271e+02             122.570           4.000e+01     
  93.000          90.000           -8.209e+00          -8.209e+00             285.489          -1.269e+02             123.213           4.000e+01     
  94.000          90.000           -8.483e+00          -8.483e+00             285.808          -1.268e+02             123.841           4.000e+01     
  95.000          90.000           -8.764e+00          -8.764e+00             286.137          -1.266e+02             124.455           4.000e+01     
  96.000          90.000           -9.051e+00          -9.051e+00             286.476          -1.265e+02             125.054           4.000e+01     
  97.000          90.000           -9.347e+00          -9.347e+00             286.824          -1.263e+02             125.641           4.000e+01     
  98.000          90.000           -9.651e+00          -9.651e+00             287.184          -1.262e+02             126.216           4.000e+01     
  99.000          90.000           -9.963e+00          -9.963e+00             287.555          -1.260e+02             126.781           4.000e+01     
 100.000          90.000           -1.028e+01          -1.028e+01             287.938          -1.259e+02             127.336           4.000e+01     
 101.000          90.000           -1.062e+01          -1.062e+01             288.335          -1.258e+02             127.883           4.000e+01     
 102.000          90.000           -1.096e+01          -1.096e+01             288.746          -1.257e+02             128.422           4.000e+01     
 103.000          90.000           -1.131e+01          -1.131e+01             289.172          -1.255e+02             128.955           4.000e+01     
 104.000          90.000           -1.168e+01          -1.168e+01             289.615          -1.254e+02             129.482           4.000e+01     
 105.000          90.000           -1.206e+01          -1.206e+01             290.077          -1.253e+02             130.005           4.000e+01     
 106.000          90.000           -1.245e+01          -1.245e+01             290.559          -1.252e+02             130.525           4.000e+01     
 107.000          90.000           -1.286e+01          -1.286e+01             291.064          -1.251e+02             131.042           4.000e+01     
 108.000          90.000           -1.329e+01          -1.329e+01             291.595          -1.250e+02             131.557           4.000e+01     
 109.000          90.000           -1.374e+01          -1.374e+01             292.154          -1.250e+02             132.072           4.000e+01     
 110.000          90.000           -1.421e+01          -1.421e+01             292.746          -1.249e+02             132.587           4.000e+01     
 111.000          90.000           -1.470e+01          -1.470e+01             293.375          -1.248e+02             133.103           4.000e+01     
 112.000          90.000           -1.522e+01          -1.522e+01             294.048          -1.247e+02             133.622           4.000e+01     
 113.000          90.000           -1.577e+01          -1.577e+01             294.773          -1.247e+02             134.143           4.000e+01     
 114.000          90.000           -1.635e+01          -1.635e+01             295.557          -1.246e+02             134.669           4.000e+01     
 115.000          90.000           -1.697e+01          -1.697e+01             296.415          -1.246e+02             135.199           4.000e+01     
 116.000          90.000           -1.763e+01          -1.763e+01             297.362          -1.245e+02             135.736           4.000e+01     
 117.000          90.000           -1.834e+01          -1.834e+01             298.419          -1.245e+02             136.279           4.000e+01     
 118.000          90.000           -1.911e+01          -1.911e+01             299.615          -1.244e+02             136.830           4.000e+01     
 119.000          90.000           -1.995e+01          -1.995e+01             300.990          -1.244e+02             137.390           4.000e+01     
 120.000          90.000           -2.087e+01          -2.087e+01             302.602          -1.244e+02             137.961           4.000e+01     
 121.000          90.000           -2.189e+01          -2.189e+01             304.534          -1.244e+02             138.542           4.000e+01     
 122.000          90.000           -2.303e+01          -2.303e+01             306.916          -1.243e+02             139.135           4.000e+01     
 123.000          90.000           -2.431e+01          -2.431e+01             309.955          -1.243e+02             139.741           4.000e+01     
 124.000          90.000           -2.578e+01          -2.578e+01             313.997          -1.243e+02             140.362           4.000e+01     
 125.000          90.000           -2.748e+01          -2.748e+01             319.665          -1.243e+02             140.997           4.000e+01     
 126.000          90.000           -2.943e+01          -2.943e+01             328.107          -1.243e+02             141.650           4.000e+01     
 127.000          90.000           -3.157e+01          -3.157e+01             341.463          -1.244e+02             142.321           4.000e+01     
 128.000          90.000           -3.344e+01          -3.344e+01               2.649          -1.244e+02             143.010           4.000e+01     
 129.000          90.000           -3.388e+01          -3.388e+01              30.506          -1.244e+02             143.721           4.000e+01     
 130.000          90.000           -3.250e+01          -3.250e+01              55.244          -1.244e+02             144.453           4.000e+01     
 131.000          90.000           -3.042e+01          -3.042e+01              71.608          -1.244e+02             145.209           4.000e+01     
 132.000          90.000           -2.840e+01          -2.840e+01              81.809          -1.245e+02             145.989           4.000e+01     
 133.000          90.000           -2.663e+01          -2.663e+01              88.476          -1.245e+02             146.796           4.000e+01     
 134.000          90.000           -2.511e+01          -2.511e+01              93.120          -1.246e+02             147.631           4.000e+01     
 135.000          90.000           -2.379e+01          -2.379e+01              96.544          -1.246e+02             148.495           4.000e+01     
 136.000          90.000           -2.264e+01          -2.264e+01              99.189          -1.247e+02             149.390           4.000e+01     
 137.000          90.000           -2.162e+01          -2.162e+01             101.312          -1.247e+02             150.318           4.000e+01     
 138.000          90.000           -2.070e+01          -2.070e+01             103.067          -1.248e+02             151.281           4.000e+01     
 139.000          90.000           -1.987e+01          -1.987e+01             104.558          -1.249e+02             152.281           4.000e+01     
 140.000          90.000           -1.912e+01          -1.912e+01             105.849          -1.249e+02             153.318           4.000e+01     
 141.000          90.000           -1.843e+01          -1.843e+01             106.989          -1.250e+02             154.396           4.000e+01     
 142.000          90.000           -1.779e+01          -1.779e+01             108.010          -1.251e+02             155.516           4.000e+01     
 143.000          90.000           -1.720e+01          -1.720e+01             108.936          -1.252e+02             156.679           4.000e+01     
 144.000          90.000           -1.665e+01          -1.665e+01             109.785          -1.252e+02             157.888           4.000e+01     
 145.000          90.000           -1.614e+01          -1.614e+01             110.571          -1.253e+02             159.143           4.000e+01     
 146.000          90.000           -1.566e+01          -1.566e+01             111.306          -1.254e+02             160.448           4.000e+01     
 147.000          90.000           -1.520e+01          -1.520e+01             111.996          -1.255e+02             161.803           4.000e+01     
 148.000          90.000           -1.478e+01          -1.478e+01             112.649          -1.256e+02             163.210           4.000e+01     
 149.000          90.000           -1.438e+01          -1.438e+01             113.270          -1.257e+02             164.669           4.000e+01     
 150.000          90.000           -1.400e+01          -1.400e+01             113.863          -1.258e+02             166.182           4.000e+01     
 151.000          90.000           -1.364e+01          -1.364e+01             114.433          -1.258e+02             167.750           4.000e+01     
 152.000          90.000           -1.330e+01          -1.330e+01             114.981          -1.259e+02             169.372           4.000e+01     
 153.000          90.000           -1.298e+01          -1.298e+01             115.511          -1.260e+02             171.048           4.000e+01     
 154.000          90.000           -1.267e+01          -1.267e+01             116.025          -1.261e+02             172.778           4.000e+01     
 155.000          90.000           -1.237e+01          -1.237e+01             116.525          -1.262e+02             174.560           4.000e+01     
 156.000          90.000           -1.210e+01          -1.210e+01             117.011          -1.262e+02             176.393           4.000e+01     
 157.000          90.000           -1.183e+01          -1.183e+01             117.486          -1.263e+02             178.275           4.000e+01     
 158.000          90.000           -1.158e+01          -1.158e+01             117.951          -1.263e+02             180.203           4.000e+01     
 159.000          90.000           -1.134e+01          -1.134e+01             118.406          -1.264e+02             182.172           4.000e+01     
 160.000          90.000           -1.111e+01          -1.111e+01             118.852          -1.264e+02             184.179           4.000e+01     
 161.000          90.000           -1.089e+01          -1.089e+01             119.291          -1.265e+02             186.218           4.000e+01     
 162.000          90.000           -1.068e+01          -1.068e+01             119.723          -1.265e+02             188.285           4.000e+01     
 163.000          90.000           -1.048e+01          -1.048e+01             120.149          -1.265e+02             190.373           4.000e+01     
 164.000          90.000           -1.029e+01          -1.029e+01             120.569          -1.265e+02             192.476           4.000e+01     
 165.000          90.000           -1.011e+01          -1.011e+01             120.984          -1.265e+02             194.586           4.000e+01     
 166.000          90.000           -9.937e+00          -9.937e+00             121.394          -1.265e+02             196.698           4.000e+01     
 167.000          90.000           -9.774e+00          -9.774e+00             121.800          -1.264e+02             198.803           4.000e+01     
 168.000          90.000           -9.619e+00          -9.619e+00             122.203          -1.264e+02             200.895           4.000e+01     
 169.000          90.000           -9.472e+00          -9.472e+00             122.602          -1.263e+02             202.967           4.000e+01     
 170.000          90.000           -9.333e+00          -9.333e+00             122.998          -1.263e+02             205.011           4.000e+01     
 171.000          90.000           -9.201e+00          -9.201e+00             123.391          -1.262e+02             207.023           4.000e+01     
 172.000          90.000           -9.077e+00          -9.077e+00             123.783          -1.261e+02             208.996           4.000e+01     
 173.000          90.000           -8.960e+00          -8.960e+00             124.173          -1.260e+02             210.925           4.000e+01     
 174.000          90.000           -8.851e+00          -8.851e+00             124.561          -1.259e+02             212.805           4.000e+01     
 175.000          90.000           -8.748e+00          -8.748e+00             124.948          -1.258e+02             214.633           4.000e+01     
 176.000          90.000           -8.652e+00          -8.652e+00             125.334          -1.257e+02             216.405           4.000e+01     
 177.000          90.000           -8.563e+00          -8.563e+00             125.720          -1.256e+02             218.119           4.000e+01     
 178.000          90.000           -8.480e+00          -8.480e+00             126.106          -1.255e+02             219.773           4.000e+01     
 179.000          90.000           -8.404e+00          -8.404e+00             126.493          -1.254e+02             221.365           4.000e+01     
 180.000          90.000           -8.335e+00          -8.335e+00             126.879          -1.252e+02             222.893           4.000e+01     
 179.000         270.000           -8.272e+00          -8.272e+00             307.267          -1.251e+02              44.360           4.000e+01     
 178.000         270.000           -8.215e+00          -8.215e+00             307.657          -1.250e+02              45.764           4.000e+01     
 177.000         270.000           -8.165e+00          -8.165e+00             308.048          -1.248e+02              47.106           4.000e+01     
 176.000         270.000           -8.121e+00          -8.121e+00             308.441          -1.247e+02              48.387           4.000e+01     
 175.000         270.000           -8.083e+00          -8.083e+00             308.837          -1.245e+02              49.606           4.000e+01     
 174.000         270.000           -8.051e+00          -8.051e+00             309.236          -1.244e+02              50.767           4.000e+01     
 173.000         270.000           -8.025e+00          -8.025e+00             309.639          -1.243e+02              51.869           4.000e+01     
 172.000         270.000           -8.006e+00          -8.006e+00             310.045          -1.241e+02              52.916           4.000e+01     
 171.000         270.000           -7.992e+00          -7.992e+00             310.456          -1.240e+02              53.907           4.000e+01     
 170.000         270.000           -7.984e+00          -7.984e+00             310.872          -1.238e+02              54.846           4.000e+01     
 169.000         270.000           -7.983e+00          -7.983e+00             311.293          -1.237e+02              55.733           4.000e+01     
 168.000         270.000           -7.987e+00          -7.987e+00             311.720          -1.236e+02              56.570           4.000e+01     
 167.000         270.000           -7.998e+00          -7.998e+00             312.154          -1.234e+02              57.360           4.000e+01     
 166.000         270.000           -8.014e+00          -8.014e+00             312.595          -1.233e+02              58.104           4.000e+01     
 165.000         270.000           -8.037e+00          -8.037e+00             313.044          -1.232e+02              58.804           4.000e+01     
 164.000         270.000           -8.065e+00          -8.065e+00             313.502          -1.231e+02              59.462           4.000e+01     
 163.000         270.000           -8.100e+00          -8.100e+00             313.969          -1.230e+02              60.078           4.000e+01     
 162.000         270.000           -8.140e+00          -8.140e+00             314.447          -1.228e+02              60.655           4.000e+01     
 161.000         270.000           -8.187e+00          -8.187e+00             314.935          -1.227e+02              61.194           4.000e+01     
 160.000         270.000           -8.239e+00          -8.239e+00             315.435          -1.226e+02              61.697           4.000e+01     
 159.000         270.000           -8.298e+00          -8.298e+00             315.948          -1.225e+02              62.166           4.000e+01     
 158.000         270.000           -8.362e+00          -8.362e+00             316.476          -1.224e+02              62.601           4.000e+01     
 157.000         270.000           -8.433e+00          -8.433e+00             317.018          -1.223e+02              63.003           4.000e+01     
 156.000         270.000           -8.510e+00          -8.510e+00             317.577          -1.222e+02              63.375           4.000e+01     
 155.000         270.000           -8.593e+00          -8.593e+00             318.153          -1.221e+02              63.717           4.000e+01     
 154.000         270.000           -8.682e+00          -8.682e+00             318.748          -1.220e+02              64.031           4.000e+01     
 153.000         270.000           -8.778e+00          -8.778e+00             319.363          -1.219e+02              64.317           4.000e+01     
 152.000         270.000           -8.879e+00          -8.879e+00             320.001          -1.218e+02              64.577           4.000e+01     
 151.000         270.000           -8.987e+00          -8.987e+00             320.662          -1.218e+02              64.811           4.000e+01     
 150.000         270.000           -9.101e+00          -9.101e+00             321.349          -1.217e+02              65.021           4.000e+01     
 149.000         270.000           -9.222e+00          -9.222e+00             322.063          -1.216e+02              65.207           4.000e+01     
 148.000         270.000           -9.349e+00          -9.349e+00             322.807          -1.215e+02              65.371           4.000e+01     
 147.000         270.000           -9.481e+00          -9.481e+00             323.584          -1.215e+02              65.512           4.000e+01     
 146.000         270.000           -9.621e+00          -9.621e+00             324.394          -1.214e+02              65.632           4.000e+01     
 145.000         270.000           -9.766e+00          -9.766e+00             325.242          -1.213e+02              65.732           4.000e+01     
 144.000         270.000           -9.918e+00          -9.918e+00             326.131          -1.213e+02              65.812           4.000e+01     
 143.000         270.000           -1.008e+01          -1.008e+01             327.062          -1.212e+02              65.872           4.000e+01     
 142.000         270.000           -1.024e+01          -1.024e+01             328.041          -1.212e+02              65.914           4.000e+01     
 141.000         270.000           -1.041e+01          -1.041e+01             329.070          -1.211e+02              65.938           4.000e+01     
 140.000         270.000           -1.058e+01          -1.058e+01             330.154          -1.211e+02              65.944           4.000e+01     
 139.000         270.000           -1.077e+01          -1.077e+01             331.296          -1.210e+02              65.933           4.000e+01     
 138.000         270.000           -1.095e+01          -1.095e+01             332.502          -1.210e+02              65.906           4.000e+01     
 137.000         270.000           -1.114e+01          -1.114e+01             333.776          -1.209e+02              65.862           4.000e+01     
 136.000         270.000           -1.134e+01          -1.134e+01             335.123          -1.209e+02              65.803           4.000e+01     
 135.000         270.000           -1.154e+01          -1.154e+01             336.549          -1.208e+02              65.729           4.000e+01     
 134.000         270.000           -1.174e+01          -1.174e+01             338.060          -1.208e+02              65.639           4.000e+01     
 133.000         270.000           -1.195e+01          -1.195e+01             339.662          -1.208e+02              65.535           4.000e+01     
 132.000         270.000           -1.216e+01          -1.216e+01             341.360          -1.207e+02              65.416           4.000e+01     
 131.000         270.000           -1.237e+01          -1.237e+01             343.161          -1.207e+02              65.283           4.000e+01     
 130.000         270.000           -1.258e+01          -1.258e+01             345.070          -1.207e+02              65.137           4.000e+01     
 129.000         270.000           -1.279e+01          -1.279e+01             347.095          -1.207e+02              64.976           4.000e+01     
 128.000         270.000           -1.299e+01          -1.299e+01             349.239          -1.206e+02              64.803           4.000e+01     
 127.000         270.000           -1.319e+01          -1.319e+01             351.508          -1.206e+02              64.616           4.000e+01     
 126.000         270.000           -1.339e+01          -1.339e+01             353.904          -1.206e+02              64.417           4.000e+01     
 125.000         270.000           -1.357e+01          -1.357e+01             356.430          -1.206e+02              64.205           4.000e+01     
 124.000         270.000           -1.374e+01          -1.374e+01             359.086          -1.206e+02              63.980           4.000e+01     
 123.000         270.000           -1.390e+01          -1.390e+01               1.869          -1.205e+02              63.742           4.000e+01     
 122.000         270.000           -1.404e+01          -1.404e+01               4.774          -1.205e+02              63.493           4.000e+01     
 121.000         270.000           -1.416e+01          -1.416e+01               7.792          -1.205e+02              63.231           4.000e+01     
 120.000         270.000           -1.426e+01          -1.426e+01              10.912          -1.205e+02              62.957           4.000e+01     
 119.000         270.000           -1.434e+01          -1.434e+01              14.119          -1.205e+02              62.671           4.000e+01     
 118.000         270.000           -1.439e+01          -1.439e+01              17.394          -1.205e+02              62.373           4.000e+01     
 117.000         270.000           -1.440e+01          -1.440e+01              20.717          -1.205e+02              62.063           4.000e+01     
 116.000         270.000           -1.439e+01          -1.439e+01              24.064          -1.205e+02              61.741           4.000e+01     
 115.000         270.000           -1.435e+01          -1.435e+01              27.412          -1.205e+02              61.408           4.000e+01     
 114.000         270.000           -1.428e+01          -1.428e+01              30.735          -1.205e+02              61.063           4.000e+01     
 113.000         270.000           -1.418e+01          -1.418e+01              34.012          -1.205e+02              60.707           4.000e+01     
 112.000         270.000           -1.405e+01          -1.405e+01              37.219          -1.205e+02              60.338           4.000e+01     
 111.000         270.000           -1.390e+01          -1.390e+01              40.338          -1.205e+02              59.959           4.000e+01     
 110.000         270.000           -1.372e+01          -1.372e+01              43.354          -1.205e+02              59.567           4.000e+01     
 109.000         270.000           -1.352e+01          -1.352e+01              46.253          -1.205e+02              59.165           4.000e+01     
 108.000         270.000           -1.330e+01          -1.330e+01              49.026          -1.205e+02              58.750           4.000e+01     
 107.000         270.000           -1.307e+01          -1.307e+01              51.668          -1.205e+02              58.325           4.000e+01     
 106.000         270.000           -1.283e+01          -1.283e+01              54.174          -1.205e+02              57.888           4.000e+01     
 105.000         270.000           -1.257e+01          -1.257e+01              56.546          -1.205e+02              57.440           4.000e+01     
 104.000         270.000           -1.231e+01          -1.231e+01              58.783          -1.205e+02              56.980           4.000e+01     
 103.000         270.000           -1.203e+01          -1.203e+01              60.890          -1.205e+02              56.509           4.000e+01     
 102.000         270.000           -1.176e+01          -1.176e+01              62.870          -1.205e+02              56.027           4.000e+01     
 101.000         270.000           -1.148e+01          -1.148e+01              64.728          -1.206e+02              55.534           4.000e+01     
 100.000         270.000           -1.120e+01          -1.120e+01              66.471          -1.206e+02              55.030           4.000e+01     
  99.000         270.000           -1.092e+01          -1.092e+01              68.103          -1.206e+02              54.515           4.000e+01     
  98.000         270.000           -1.064e+01          -1.064e+01              69.632          -1.206e+02              53.989           4.000e+01     
  97.000         270.000           -1.036e+01          -1.036e+01              71.064          -1.206e+02              53.453           4.000e+01     
  96.000         270.000           -1.008e+01          -1.008e+01              72.404          -1.206e+02              52.906           4.000e+01     
  95.000         270.000           -9.803e+00          -9.803e+00              73.658          -1.206e+02              52.348           4.000e+01     
  94.000         270.000           -9.530e+00          -9.530e+00              74.833          -1.206e+02              51.780           4.000e+01     
  93.000         270.000           -9.260e+00          -9.260e+00              75.933          -1.206e+02              51.202           4.000e+01     
  92.000         270.000           -8.994e+00          -8.994e+00              76.963          -1.206e+02              50.614           4.000e+01     
  91.000         270.000           -8.731e+00          -8.731e+00              77.927          -1.207e+02              50.016           4.000e+01     
  90.000         270.000           -8.472e+00          -8.472e+00              78.832          -1.207e+02              49.408           4.000e+01     
  89.000         270.000           -8.217e+00          -8.217e+00              79.679          -1.207e+02              48.791           4.000e+01     
  88.000         270.000           -7.966e+00          -7.966e+00              80.474          -1.207e+02              48.166           4.000e+01     
  87.000         270.000           -7.718e+00          -7.718e+00              81.220          -1.207e+02              47.531           4.000e+01     
  86.000         270.000           -7.475e+00          -7.475e+00              81.920          -1.207e+02              46.887           4.000e+01     
  85.000         270.000           -7.235e+00          -7.235e+00              82.577          -1.207e+02              46.236           4.000e+01     
  84.000         270.000           -7.000e+00          -7.000e+00              83.194          -1.207e+02              45.576           4.000e+01     
  83.000         270.000           -6.768e+00          -6.768e+00              83.773          -1.207e+02              44.909           4.000e+01     
  82.000         270.000           -6.540e+00          -6.540e+00              84.318          -1.207e+02              44.235           4.000e+01     
  81.000         270.000           -6.316e+00          -6.316e+00              84.829          -1.207e+02              43.554           4.000e+01     
  80.000         270.000           -6.095e+00          -6.095e+00              85.310          -1.208e+02              42.866           4.000e+01     
  79.000         270.000           -5.878e+00          -5.878e+00              85.763          -1.208e+02              42.172           4.000e+01     
  78.000         270.000           -5.664e+00          -5.664e+00              86.188          -1.208e+02              41.473           4.000e+01     
  77.000         270.000           -5.454e+00          -5.454e+00              86.588          -1.208e+02              40.768           4.000e+01     
  76.000         270.000           -5.248e+00          -5.248e+00              86.964          -1.208e+02              40.058           4.000e+01     
  75.000         270.000           -5.044e+00          -5.044e+00              87.318          -1.208e+02              39.344           4.000e+01     
  74.000         270.000           -4.844e+00          -4.844e+00              87.651          -1.208e+02              38.626           4.000e+01     
  73.000         270.000           -4.647e+00          -4.647e+00              87.965          -1.208e+02              37.905           4.000e+01     
  72.000         270.000           -4.453e+00          -4.453e+00              88.259          -1.208e+02              37.180           4.000e+01     
  71.000         270.000           -4.263e+00          -4.263e+00              88.537          -1.208e+02              36.453           4.000e+01     
  70.000         270.000           -4.075e+00          -4.075e+00              88.798          -1.208e+02              35.723           4.000e+01     
  69.000         270.000           -3.890e+00          -3.890e+00              89.043          -1.208e+02              34.992           4.000e+01     
  68.000         270.000           -3.708e+00          -3.708e+00              89.275          -1.208e+02              34.260           4.000e+01     
  67.000         270.000           -3.529e+00          -3.529e+00              89.492          -1.208e+02              33.526           4.000e+01     
  66.000         270.000           -3.352e+00          -3.352e+00              89.697          -1.208e+02              32.793           4.000e+01     
  65.000         270.000           -3.179e+00          -3.179e+00              89.889          -1.208e+02              32.059           4.000e+01     
  64.000         270.000           -3.008e+00          -3.008e+00              90.070          -1.208e+02              31.326           4.000e+01     
  63.000         270.000           -2.839e+00          -2.839e+00              90.240          -1.208e+02              30.594           4.000e+01     
  62.000         270.000           -2.674e+00          -2.674e+00              90.400          -1.209e+02              29.864           4.000e+01     
  61.000         270.000           -2.510e+00          -2.510e+00              90.551          -1.209e+02              29.135           4.000e+01     
  60.000         270.000           -2.350e+00          -2.350e+00              90.692          -1.209e+02              28.408           4.000e+01     
  59.000         270.000           -2.192e+00          -2.192e+00              90.825          -1.209e+02              27.683           4.000e+01     
  58.000         270.000           -2.036e+00          -2.036e+00              90.950          -1.209e+02              26.962           4.000e+01     
  57.000         270.000           -1.883e+00          -1.883e+00              91.068          -1.209e+02              26.243           4.000e+01     
  56.000         270.000           -1.732e+00          -1.732e+00              91.178          -1.209e+02              25.528           4.000e+01     
  55.000         270.000           -1.584e+00          -1.584e+00              91.282          -1.209e+02              24.817           4.000e+01     
  54.000         270.000           -1.438e+00          -1.438e+00              91.380          -1.209e+02              24.110           4.000e+01     
  53.000         270.000           -1.295e+00          -1.295e+00              91.471          -1.209e+02              23.407           4.000e+01     
  52.000         270.000           -1.154e+00          -1.154e+00              91.558          -1.210e+02              22.708           4.000e+01     
  51.000         270.000           -1.015e+00          -1.015e+00              91.639          -1.210e+02              22.015           4.000e+01     
  50.000         270.000           -8.790e-01          -8.790e-01              91.715          -1.210e+02              21.325           4.000e+01     
  49.000         270.000           -7.450e-01          -7.450e-01              91.786          -1.210e+02              20.641           4.000e+01     
  48.000         270.000           -6.134e-01          -6.134e-01              91.854          -1.210e+02              19.963           4.000e+01     
  47.000         270.000           -4.842e-01          -4.842e-01              91.917          -1.211e+02              19.289           4.000e+01     
  46.000         270.000           -3.573e-01          -3.573e-01              91.977          -1.211e+02              18.621           4.000e+01     
  45.000         270.000           -2.327e-01          -2.327e-01              92.033          -1.211e+02              17.958           4.000e+01     
  44.000         270.000           -1.105e-01          -1.105e-01              92.086          -1.211e+02              17.301           4.000e+01     
  43.000         270.000            9.357e-03           9.357e-03              92.136          -1.212e+02              16.650           4.000e+01     
  42.000         270.000            1.269e-01           1.269e-01              92.184          -1.212e+02              16.004           4.000e+01     
  41.000         270.000            2.420e-01           2.420e-01              92.228          -1.212e+02              15.364           4.000e+01     
  40.000         270.000            3.548e-01           3.548e-01              92.271          -1.213e+02              14.729           4.000e+01     
  39.000         270.000            4.652e-01           4.652e-01              92.311          -1.213e+02              14.100           4.000e+01     
  38.000         270.000            5.733e-01           5.733e-01              92.349          -1.214e+02              13.477           4.000e+01     
  37.000         270.000            6.789e-01           6.789e-01              92.386          -1.214e+02              12.859           4.000e+01     
  36.000         270.000            7.822e-01           7.822e-01              92.421          -1.215e+02              12.246           4.000e+01     
  35.000         270.000            8.831e-01           8.831e-01              92.454          -1.215e+02              11.638           4.000e+01     
  34.000         270.000            9.816e-01           9.816e-01              92.486          -1.216e+02              11.035           4.000e+01     
  33.000         270.000            1.078e+00           1.078e+00              92.517          -1.217e+02              10.438           4.000e+01     
  32.000         270.000            1.171e+00           1.171e+00              92.546          -1.217e+02               9.845           4.000e+01     
  31.000         270.000            1.262e+00           1.262e+00              92.575          -1.218e+02               9.256           4.000e+01     
  30.000         270.000            1.351e+00           1.351e+00              92.603          -1.219e+02               8.672           4.000e+01     
  29.000         270.000            1.437e+00           1.437e+00              92.630          -1.220e+02               8.092           4.000e+01     
  28.000         270.000            1.521e+00           1.521e+00              92.657          -1.220e+02               7.516           4.000e+01     
  27.000         270.000            1.603e+00           1.603e+00              92.683          -1.221e+02               6.943           4.000e+01     
  26.000         270.000            1.681e+00           1.681e+00              92.709          -1.222e+02               6.374           4.000e+01     
  25.000         270.000            1.758e+00           1.758e+00              92.735          -1.223e+02               5.808           4.000e+01     
  24.000         270.000            1.831e+00           1.831e+00              92.760          -1.224e+02               5.244           4.000e+01     
  23.000         270.000            1.903e+00           1.903e+00              92.785          -1.225e+02               4.682           4.000e+01     
  22.000         270.000            1.971e+00           1.971e+00              92.811          -1.226e+02               4.122           4.000e+01     
  21.000         270.000            2.037e+00           2.037e+00              92.836          -1.228e+02               3.564           4.000e+01     
  20.000         270.000            2.101e+00           2.101e+00              92.861          -1.229e+02               3.006           4.000e+01     
  19.000         270.000            2.162e+00           2.162e+00              92.887          -1.230e+02               2.449           4.000e+01     
  18.000         270.000            2.220e+00           2.220e+00              92.913          -1.232e+02               1.892           4.000e+01     
  17.000         270.000            2.276e+00           2.276e+00              92.939          -1.233e+02               1.335           4.000e+01     
  16.000         270.000            2.329e+00           2.329e+00              92.965          -1.234e+02               0.776           4.000e+01     
  15.000         270.000            2.380e+00           2.380e+00              92.992          -1.236e+02               0.215           4.000e+01     
  14.000         270.000            2.428e+00           2.428e+00              93.020          -1.238e+02             359.652           4.000e+01     
  13.000         270.000            2.473e+00           2.473e+00              93.048          -1.239e+02             359.085           4.000e+01     
  12.000         270.000            2.515e+00           2.515e+00              93.077          -1.241e+02             358.514           4.000e+01     
  11.000         270.000            2.555e+00           2.555e+00              93.106          -1.243e+02             357.938           4.000e+01     
  10.000         270.000            2.592e+00           2.592e+00              93.136          -1.245e+02             357.356           4.000e+01     
   9.000         270.000            2.627e+00           2.627e+00              93.167          -1.247e+02             356.768           4.000e+01     
   8.000         270.000            2.659e+00           2.659e+00              93.198          -1.249e+02             356.171           4.000e+01     
   7.000         270.000            2.688e+00           2.688e+00              93.231          -1.251e+02             355.565           4.000e+01     
   6.000         270.000            2.714e+00           2.714e+00              93.264          -1.253e+02             354.948           4.000e+01     
   5.000         270.000            2.738e+00           2.738e+00              93.298          -1.255e+02             354.319           4.000e+01     
   4.000         270.000            2.759e+00           2.759e+00              93.333          -1.257e+02             353.677           4.000e+01     
   3.000         270.000            2.777e+00           2.777e+00              93.368          -1.260e+02             353.020           4.000e+01     
   2.000         270.000            2.792e+00           2.792e+00              93.405          -1.262e+02             352.345           4.000e+01     
   1.000         270.000            2.805e+00           2.805e+00              93.443          -1.265e+02             351.652           4.000e+01     
