Theta [deg.]  Phi   [deg.]  Abs(Gain)[dBi   ]   Abs(Theta)[dBi   ]  Phase(Theta)[deg.]  Abs(Phi  )[dBi   ]  Phase(Phi  )[deg.]  Ax.Ratio[dB    ]    
------------------------------------------------------------------------------------------------------------------------------------------------------
   0.000          90.000            2.950e+00           2.950e+00             137.113          -1.176e+02              46.359           4.000e+01     
   1.000          90.000            2.966e+00           2.966e+00             137.007          -1.178e+02              46.240           4.000e+01     
   2.000          90.000            2.978e+00           2.978e+00             136.903          -1.179e+02              46.129           4.000e+01     
   3.000          90.000            2.988e+00           2.988e+00             136.800          -1.181e+02              46.026           4.000e+01     
   4.000          90.000            2.996e+00           2.996e+00             136.700          -1.182e+02              45.930           4.000e+01     
   5.000          90.000            3.000e+00           3.000e+00             136.601          -1.184e+02              45.842           4.000e+01     
   6.000          90.000            3.002e+00           3.002e+00             136.504          -1.186e+02              45.761           4.000e+01     
   7.000          90.000            3.000e+00           3.000e+00             136.409          -1.187e+02              45.686           4.000e+01     
   8.000          90.000            2.996e+00           2.996e+00             136.316          -1.189e+02              45.618           4.000e+01     
   9.000          90.000            2.990e+00           2.990e+00             136.225          -1.191e+02              45.557           4.000e+01     
  10.000          90.000            2.980e+00           2.980e+00             136.135          -1.193e+02              45.501           4.000e+01     
  11.000          90.000            2.967e+00           2.967e+00             136.048          -1.195e+02              45.450           4.000e+01     
  12.000          90.000            2.951e+00           2.951e+00             135.962          -1.197e+02              45.405           4.000e+01     
  13.000          90.000            2.933e+00           2.933e+00             135.879          -1.199e+02              45.364           4.000e+01     
  14.000          90.000            2.912e+00           2.912e+00             135.797          -1.201e+02              45.326           4.000e+01     
  15.000          90.000            2.887e+00           2.887e+00             135.717          -1.203e+02              45.292           4.000e+01     
  16.000          90.000            2.860e+00           2.860e+00             135.640          -1.206e+02              45.260           4.000e+01     
  17.000          90.000            2.830e+00           2.830e+00             135.564          -1.208e+02              45.230           4.000e+01     
  18.000          90.000            2.797e+00           2.797e+00             135.490          -1.210e+02              45.200           4.000e+01     
  19.000          90.000            2.761e+00           2.761e+00             135.418          -1.212e+02              45.170           4.000e+01     
  20.000          90.000            2.722e+00           2.722e+00             135.348          -1.215e+02              45.138           4.000e+01     
  21.000          90.000            2.680e+00           2.680e+00             135.281          -1.217e+02              45.103           4.000e+01     
  22.000          90.000            2.635e+00           2.635e+00             135.215          -1.220e+02              45.064           4.000e+01     
  23.000          90.000            2.587e+00           2.587e+00             135.152          -1.222e+02              45.019           4.000e+01     
  24.000          90.000            2.537e+00           2.537e+00             135.090          -1.225e+02              44.967           4.000e+01     
  25.000          90.000            2.483e+00           2.483e+00             135.031          -1.227e+02              44.905           4.000e+01     
  26.000          90.000            2.427e+00           2.427e+00             134.974          -1.230e+02              44.832           4.000e+01     
  27.000          90.000            2.368e+00           2.368e+00             134.919          -1.233e+02              44.746           4.000e+01     
  28.000          90.000            2.306e+00           2.306e+00             134.866          -1.235e+02              44.643           4.000e+01     
  29.000          90.000            2.241e+00           2.241e+00             134.815          -1.238e+02              44.523           4.000e+01     
  30.000          90.000            2.173e+00           2.173e+00             134.767          -1.240e+02              44.381           4.000e+01     
  31.000          90.000            2.102e+00           2.102e+00             134.721          -1.243e+02              44.215           4.000e+01     
  32.000          90.000            2.029e+00           2.029e+00             134.678          -1.246e+02              44.022           4.000e+01     
  33.000          90.000            1.952e+00           1.952e+00             134.637          -1.248e+02              43.799           4.000e+01     
  34.000          90.000            1.874e+00           1.874e+00             134.598          -1.251e+02              43.543           4.000e+01     
  35.000          90.000            1.792e+00           1.792e+00             134.563          -1.254e+02              43.250           4.000e+01     
  36.000          90.000            1.707e+00           1.707e+00             134.529          -1.256e+02              42.916           4.000e+01     
  37.000          90.000            1.620e+00           1.620e+00             134.499          -1.259e+02              42.538           4.000e+01     
  38.000          90.000            1.531e+00           1.531e+00             134.471          -1.261e+02              42.113           4.000e+01     
  39.000          90.000            1.438e+00           1.438e+00             134.446          -1.264e+02              41.637           4.000e+01     
  40.000          90.000            1.343e+00           1.343e+00             134.423          -1.266e+02              41.106           4.000e+01     
  41.000          90.000            1.246e+00           1.246e+00             134.404          -1.269e+02              40.518           4.000e+01     
  42.000          90.000            1.146e+00           1.146e+00             134.388          -1.271e+02              39.871           4.000e+01     
  43.000          90.000            1.043e+00           1.043e+00             134.375          -1.273e+02              39.160           4.000e+01     
  44.000          90.000            9.384e-01           9.384e-01             134.365          -1.275e+02              38.386           4.000e+01     
  45.000          90.000            8.310e-01           8.310e-01             134.359          -1.277e+02              37.547           4.000e+01     
  46.000          90.000            7.213e-01           7.213e-01             134.356          -1.279e+02              36.643           4.000e+01     
  47.000          90.000            6.091e-01           6.091e-01             134.356          -1.281e+02              35.674           4.000e+01     
  48.000          90.000            4.947e-01           4.947e-01             134.361          -1.282e+02              34.642           4.000e+01     
  49.000          90.000            3.781e-01           3.781e-01             134.369          -1.284e+02              33.550           4.000e+01     
  50.000          90.000            2.592e-01           2.592e-01             134.380          -1.285e+02              32.402           4.000e+01     
  51.000          90.000            1.381e-01           1.381e-01             134.396          -1.286e+02              31.202           4.000e+01     
  52.000          90.000            1.487e-02           1.487e-02             134.416          -1.287e+02              29.956           4.000e+01     
  53.000          90.000           -1.104e-01          -1.104e-01             134.441          -1.288e+02              28.672           4.000e+01     
  54.000          90.000           -2.378e-01          -2.378e-01             134.470          -1.288e+02              27.356           4.000e+01     
  55.000          90.000           -3.671e-01          -3.671e-01             134.503          -1.288e+02              26.018           4.000e+01     
  56.000          90.000           -4.984e-01          -4.984e-01             134.541          -1.288e+02              24.666           4.000e+01     
  57.000          90.000           -6.316e-01          -6.316e-01             134.584          -1.288e+02              23.309           4.000e+01     
  58.000          90.000           -7.667e-01          -7.667e-01             134.632          -1.288e+02              21.955           4.000e+01     
  59.000          90.000           -9.036e-01          -9.036e-01             134.685          -1.287e+02              20.614           4.000e+01     
  60.000          90.000           -1.042e+00          -1.042e+00             134.744          -1.287e+02              19.293           4.000e+01     
  61.000          90.000           -1.183e+00          -1.183e+00             134.808          -1.286e+02              18.001           4.000e+01     
  62.000          90.000           -1.325e+00          -1.325e+00             134.878          -1.285e+02              16.743           4.000e+01     
  63.000          90.000           -1.468e+00          -1.468e+00             134.954          -1.283e+02              15.525           4.000e+01     
  64.000          90.000           -1.614e+00          -1.614e+00             135.036          -1.282e+02              14.352           4.000e+01     
  65.000          90.000           -1.760e+00          -1.760e+00             135.125          -1.281e+02              13.228           4.000e+01     
  66.000          90.000           -1.909e+00          -1.909e+00             135.219          -1.279e+02              12.156           4.000e+01     
  67.000          90.000           -2.058e+00          -2.058e+00             135.321          -1.277e+02              11.138           4.000e+01     
  68.000          90.000           -2.210e+00          -2.210e+00             135.429          -1.275e+02              10.174           4.000e+01     
  69.000          90.000           -2.362e+00          -2.362e+00             135.545          -1.274e+02               9.266           4.000e+01     
  70.000          90.000           -2.516e+00          -2.516e+00             135.668          -1.272e+02               8.413           4.000e+01     
  71.000          90.000           -2.671e+00          -2.671e+00             135.799          -1.270e+02               7.614           4.000e+01     
  72.000          90.000           -2.827e+00          -2.827e+00             135.937          -1.268e+02               6.869           4.000e+01     
  73.000          90.000           -2.985e+00          -2.985e+00             136.083          -1.265e+02               6.176           4.000e+01     
  74.000          90.000           -3.144e+00          -3.144e+00             136.237          -1.263e+02               5.533           4.000e+01     
  75.000          90.000           -3.304e+00          -3.304e+00             136.400          -1.261e+02               4.938           4.000e+01     
  76.000          90.000           -3.465e+00          -3.465e+00             136.572          -1.259e+02               4.390           4.000e+01     
  77.000          90.000           -3.627e+00          -3.627e+00             136.752          -1.257e+02               3.887           4.000e+01     
  78.000          90.000           -3.790e+00          -3.790e+00             136.942          -1.255e+02               3.426           4.000e+01     
  79.000          90.000           -3.955e+00          -3.955e+00             137.141          -1.253e+02               3.005           4.000e+01     
  80.000          90.000           -4.120e+00          -4.120e+00             137.349          -1.250e+02               2.622           4.000e+01     
  81.000          90.000           -4.287e+00          -4.287e+00             137.568          -1.248e+02               2.276           4.000e+01     
  82.000          90.000           -4.454e+00          -4.454e+00             137.796          -1.246e+02               1.964           4.000e+01     
  83.000          90.000           -4.623e+00          -4.623e+00             138.035          -1.244e+02               1.685           4.000e+01     
  84.000          90.000           -4.792e+00          -4.792e+00             138.284          -1.242e+02               1.436           4.000e+01     
  85.000          90.000           -4.963e+00          -4.963e+00             138.544          -1.240e+02               1.217           4.000e+01     
  86.000          90.000           -5.135e+00          -5.135e+00             138.816          -1.238e+02               1.026           4.000e+01     
  87.000          90.000           -5.308e+00          -5.308e+00             139.098          -1.236e+02               0.860           4.000e+01     
  88.000          90.000           -5.482e+00          -5.482e+00             139.392          -1.234e+02               0.720           4.000e+01     
  89.000          90.000           -5.657e+00          -5.657e+00             139.698          -1.232e+02               0.604           4.000e+01     
  90.000          90.000           -5.833e+00          -5.833e+00             140.016          -1.230e+02               0.510           4.000e+01     
  91.000          90.000           -6.010e+00          -6.010e+00             140.347          -1.229e+02               0.438           4.000e+01     
  92.000          90.000           -6.189e+00          -6.189e+00             140.690          -1.227e+02               0.387           4.000e+01     
  93.000          90.000           -6.370e+00          -6.370e+00             141.047          -1.225e+02               0.355           4.000e+01     
  94.000          90.000           -6.551e+00          -6.551e+00             141.416          -1.223e+02               0.343           4.000e+01     
  95.000          90.000           -6.734e+00          -6.734e+00             141.799          -1.222e+02               0.348           4.000e+01     
  96.000          90.000           -6.919e+00          -6.919e+00             142.197          -1.220e+02               0.372           4.000e+01     
  97.000          90.000           -7.105e+00          -7.105e+00             142.608          -1.219e+02               0.412           4.000e+01     
  98.000          90.000           -7.294e+00          -7.294e+00             143.035          -1.217e+02               0.469           4.000e+01     
  99.000          90.000           -7.484e+00          -7.484e+00             143.476          -1.216e+02               0.543           4.000e+01     
 100.000          90.000           -7.676e+00          -7.676e+00             143.933          -1.214e+02               0.631           4.000e+01     
 101.000          90.000           -7.870e+00          -7.870e+00             144.407          -1.213e+02               0.736           4.000e+01     
 102.000          90.000           -8.067e+00          -8.067e+00             144.897          -1.211e+02               0.855           4.000e+01     
 103.000          90.000           -8.266e+00          -8.266e+00             145.404          -1.210e+02               0.989           4.000e+01     
 104.000          90.000           -8.468e+00          -8.468e+00             145.928          -1.209e+02               1.137           4.000e+01     
 105.000          90.000           -8.673e+00          -8.673e+00             146.472          -1.207e+02               1.300           4.000e+01     
 106.000          90.000           -8.881e+00          -8.881e+00             147.034          -1.206e+02               1.477           4.000e+01     
 107.000          90.000           -9.093e+00          -9.093e+00             147.616          -1.205e+02               1.667           4.000e+01     
 108.000          90.000           -9.307e+00          -9.307e+00             148.220          -1.204e+02               1.872           4.000e+01     
 109.000          90.000           -9.526e+00          -9.526e+00             148.845          -1.203e+02               2.090           4.000e+01     
 110.000          90.000           -9.749e+00          -9.749e+00             149.493          -1.202e+02               2.322           4.000e+01     
 111.000          90.000           -9.976e+00          -9.976e+00             150.165          -1.201e+02               2.568           4.000e+01     
 112.000          90.000           -1.021e+01          -1.021e+01             150.863          -1.200e+02               2.827           4.000e+01     
 113.000          90.000           -1.045e+01          -1.045e+01             151.588          -1.199e+02               3.101           4.000e+01     
 114.000          90.000           -1.069e+01          -1.069e+01             152.342          -1.198e+02               3.387           4.000e+01     
 115.000          90.000           -1.094e+01          -1.094e+01             153.127          -1.197e+02               3.688           4.000e+01     
 116.000          90.000           -1.119e+01          -1.119e+01             153.944          -1.196e+02               4.002           4.000e+01     
 117.000          90.000           -1.145e+01          -1.145e+01             154.798          -1.196e+02               4.330           4.000e+01     
 118.000          90.000           -1.172e+01          -1.172e+01             155.689          -1.195e+02               4.673           4.000e+01     
 119.000          90.000           -1.200e+01          -1.200e+01             156.622          -1.194e+02               5.029           4.000e+01     
 120.000          90.000           -1.228e+01          -1.228e+01             157.601          -1.194e+02               5.400           4.000e+01     
 121.000          90.000           -1.257e+01          -1.257e+01             158.628          -1.193e+02               5.785           4.000e+01     
 122.000          90.000           -1.288e+01          -1.288e+01             159.710          -1.193e+02               6.184           4.000e+01     
 123.000          90.000           -1.319e+01          -1.319e+01             160.851          -1.192e+02               6.598           4.000e+01     
 124.000          90.000           -1.351e+01          -1.351e+01             162.058          -1.192e+02               7.028           4.000e+01     
 125.000          90.000           -1.385e+01          -1.385e+01             163.338          -1.191e+02               7.472           4.000e+01     
 126.000          90.000           -1.419e+01          -1.419e+01             164.700          -1.191e+02               7.932           4.000e+01     
 127.000          90.000           -1.455e+01          -1.455e+01             166.152          -1.191e+02               8.407           4.000e+01     
 128.000          90.000           -1.492e+01          -1.492e+01             167.706          -1.190e+02               8.898           4.000e+01     
 129.000          90.000           -1.531e+01          -1.531e+01             169.376          -1.190e+02               9.405           4.000e+01     
 130.000          90.000           -1.571e+01          -1.571e+01             171.176          -1.190e+02               9.929           4.000e+01     
 131.000          90.000           -1.612e+01          -1.612e+01             173.124          -1.190e+02              10.469           4.000e+01     
 132.000          90.000           -1.655e+01          -1.655e+01             175.240          -1.190e+02              11.027           4.000e+01     
 133.000          90.000           -1.700e+01          -1.700e+01             177.549          -1.190e+02              11.601           4.000e+01     
 134.000          90.000           -1.745e+01          -1.745e+01             180.079          -1.190e+02              12.193           4.000e+01     
 135.000          90.000           -1.793e+01          -1.793e+01             182.861          -1.190e+02              12.803           4.000e+01     
 136.000          90.000           -1.841e+01          -1.841e+01             185.931          -1.190e+02              13.432           4.000e+01     
 137.000          90.000           -1.890e+01          -1.890e+01             189.329          -1.190e+02              14.079           4.000e+01     
 138.000          90.000           -1.939e+01          -1.939e+01             193.100          -1.190e+02              14.745           4.000e+01     
 139.000          90.000           -1.988e+01          -1.988e+01             197.285          -1.190e+02              15.430           4.000e+01     
 140.000          90.000           -2.036e+01          -2.036e+01             201.926          -1.190e+02              16.136           4.000e+01     
 141.000          90.000           -2.081e+01          -2.081e+01             207.053          -1.191e+02              16.861           4.000e+01     
 142.000          90.000           -2.121e+01          -2.121e+01             212.676          -1.191e+02              17.607           4.000e+01     
 143.000          90.000           -2.156e+01          -2.156e+01             218.776          -1.191e+02              18.374           4.000e+01     
 144.000          90.000           -2.182e+01          -2.182e+01             225.292          -1.192e+02              19.163           4.000e+01     
 145.000          90.000           -2.198e+01          -2.198e+01             232.118          -1.192e+02              19.974           4.000e+01     
 146.000          90.000           -2.204e+01          -2.204e+01             239.104          -1.192e+02              20.807           4.000e+01     
 147.000          90.000           -2.198e+01          -2.198e+01             246.081          -1.193e+02              21.663           4.000e+01     
 148.000          90.000           -2.181e+01          -2.181e+01             252.878          -1.193e+02              22.543           4.000e+01     
 149.000          90.000           -2.155e+01          -2.155e+01             259.351          -1.194e+02              23.447           4.000e+01     
 150.000          90.000           -2.121e+01          -2.121e+01             265.401          -1.195e+02              24.374           4.000e+01     
 151.000          90.000           -2.081e+01          -2.081e+01             270.971          -1.195e+02              25.327           4.000e+01     
 152.000          90.000           -2.038e+01          -2.038e+01             276.046          -1.196e+02              26.304           4.000e+01     
 153.000          90.000           -1.991e+01          -1.991e+01             280.640          -1.197e+02              27.307           4.000e+01     
 154.000          90.000           -1.944e+01          -1.944e+01             284.785          -1.197e+02              28.336           4.000e+01     
 155.000          90.000           -1.897e+01          -1.897e+01             288.523          -1.198e+02              29.391           4.000e+01     
 156.000          90.000           -1.850e+01          -1.850e+01             291.897          -1.199e+02              30.473           4.000e+01     
 157.000          90.000           -1.804e+01          -1.804e+01             294.950          -1.199e+02              31.582           4.000e+01     
 158.000          90.000           -1.759e+01          -1.759e+01             297.722          -1.200e+02              32.718           4.000e+01     
 159.000          90.000           -1.717e+01          -1.717e+01             300.249          -1.201e+02              33.881           4.000e+01     
 160.000          90.000           -1.675e+01          -1.675e+01             302.563          -1.202e+02              35.072           4.000e+01     
 161.000          90.000           -1.636e+01          -1.636e+01             304.691          -1.203e+02              36.290           4.000e+01     
 162.000          90.000           -1.598e+01          -1.598e+01             306.657          -1.204e+02              37.536           4.000e+01     
 163.000          90.000           -1.563e+01          -1.563e+01             308.482          -1.204e+02              38.809           4.000e+01     
 164.000          90.000           -1.529e+01          -1.529e+01             310.183          -1.205e+02              40.109           4.000e+01     
 165.000          90.000           -1.497e+01          -1.497e+01             311.775          -1.206e+02              41.436           4.000e+01     
 166.000          90.000           -1.466e+01          -1.466e+01             313.272          -1.207e+02              42.789           4.000e+01     
 167.000          90.000           -1.438e+01          -1.438e+01             314.685          -1.208e+02              44.169           4.000e+01     
 168.000          90.000           -1.410e+01          -1.410e+01             316.024          -1.209e+02              45.573           4.000e+01     
 169.000          90.000           -1.385e+01          -1.385e+01             317.298          -1.209e+02              47.002           4.000e+01     
 170.000          90.000           -1.361e+01          -1.361e+01             318.514          -1.210e+02              48.455           4.000e+01     
 171.000          90.000           -1.338e+01          -1.338e+01             319.678          -1.211e+02              49.930           4.000e+01     
 172.000          90.000           -1.317e+01          -1.317e+01             320.798          -1.212e+02              51.425           4.000e+01     
 173.000          90.000           -1.298e+01          -1.298e+01             321.878          -1.213e+02              52.941           4.000e+01     
 174.000          90.000           -1.279e+01          -1.279e+01             322.922          -1.213e+02              54.474           4.000e+01     
 175.000          90.000           -1.263e+01          -1.263e+01             323.935          -1.214e+02              56.024           4.000e+01     
 176.000          90.000           -1.247e+01          -1.247e+01             324.921          -1.215e+02              57.588           4.000e+01     
 177.000          90.000           -1.233e+01          -1.233e+01             325.884          -1.216e+02              59.164           4.000e+01     
 178.000          90.000           -1.220e+01          -1.220e+01             326.825          -1.216e+02              60.751           4.000e+01     
 179.000          90.000           -1.208e+01          -1.208e+01             327.750          -1.217e+02              62.345           4.000e+01     
 180.000          90.000           -1.197e+01          -1.197e+01             328.659          -1.217e+02              63.944           4.000e+01     
 179.000         270.000           -1.188e+01          -1.188e+01             149.556          -1.218e+02             245.547           4.000e+01     
 178.000         270.000           -1.180e+01          -1.180e+01             150.443          -1.218e+02             247.151           4.000e+01     
 177.000         270.000           -1.173e+01          -1.173e+01             151.323          -1.219e+02             248.753           4.000e+01     
 176.000         270.000           -1.167e+01          -1.167e+01             152.198          -1.219e+02             250.350           4.000e+01     
 175.000         270.000           -1.162e+01          -1.162e+01             153.070          -1.220e+02             251.940           4.000e+01     
 174.000         270.000           -1.159e+01          -1.159e+01             153.942          -1.220e+02             253.521           4.000e+01     
 173.000         270.000           -1.157e+01          -1.157e+01             154.814          -1.220e+02             255.089           4.000e+01     
 172.000         270.000           -1.155e+01          -1.155e+01             155.691          -1.220e+02             256.642           4.000e+01     
 171.000         270.000           -1.155e+01          -1.155e+01             156.573          -1.221e+02             258.179           4.000e+01     
 170.000         270.000           -1.156e+01          -1.156e+01             157.463          -1.221e+02             259.695           4.000e+01     
 169.000         270.000           -1.159e+01          -1.159e+01             158.363          -1.221e+02             261.191           4.000e+01     
 168.000         270.000           -1.162e+01          -1.162e+01             159.277          -1.221e+02             262.663           4.000e+01     
 167.000         270.000           -1.167e+01          -1.167e+01             160.205          -1.221e+02             264.109           4.000e+01     
 166.000         270.000           -1.172e+01          -1.172e+01             161.152          -1.221e+02             265.528           4.000e+01     
 165.000         270.000           -1.179e+01          -1.179e+01             162.119          -1.221e+02             266.919           4.000e+01     
 164.000         270.000           -1.187e+01          -1.187e+01             163.110          -1.221e+02             268.279           4.000e+01     
 163.000         270.000           -1.196e+01          -1.196e+01             164.129          -1.221e+02             269.608           4.000e+01     
 162.000         270.000           -1.207e+01          -1.207e+01             165.178          -1.221e+02             270.903           4.000e+01     
 161.000         270.000           -1.219e+01          -1.219e+01             166.261          -1.221e+02             272.166           4.000e+01     
 160.000         270.000           -1.231e+01          -1.231e+01             167.384          -1.221e+02             273.393           4.000e+01     
 159.000         270.000           -1.245e+01          -1.245e+01             168.549          -1.221e+02             274.586           4.000e+01     
 158.000         270.000           -1.261e+01          -1.261e+01             169.763          -1.221e+02             275.743           4.000e+01     
 157.000         270.000           -1.277e+01          -1.277e+01             171.032          -1.221e+02             276.863           4.000e+01     
 156.000         270.000           -1.295e+01          -1.295e+01             172.360          -1.221e+02             277.947           4.000e+01     
 155.000         270.000           -1.314e+01          -1.314e+01             173.756          -1.220e+02             278.994           4.000e+01     
 154.000         270.000           -1.335e+01          -1.335e+01             175.226          -1.220e+02             280.005           4.000e+01     
 153.000         270.000           -1.356e+01          -1.356e+01             176.780          -1.220e+02             280.978           4.000e+01     
 152.000         270.000           -1.379e+01          -1.379e+01             178.427          -1.220e+02             281.914           4.000e+01     
 151.000         270.000           -1.403e+01          -1.403e+01             180.178          -1.220e+02             282.814           4.000e+01     
 150.000         270.000           -1.429e+01          -1.429e+01             182.044          -1.220e+02             283.677           4.000e+01     
 149.000         270.000           -1.455e+01          -1.455e+01             184.038          -1.219e+02             284.504           4.000e+01     
 148.000         270.000           -1.482e+01          -1.482e+01             186.175          -1.219e+02             285.294           4.000e+01     
 147.000         270.000           -1.511e+01          -1.511e+01             188.470          -1.219e+02             286.049           4.000e+01     
 146.000         270.000           -1.540e+01          -1.540e+01             190.940          -1.219e+02             286.768           4.000e+01     
 145.000         270.000           -1.570e+01          -1.570e+01             193.602          -1.219e+02             287.451           4.000e+01     
 144.000         270.000           -1.600e+01          -1.600e+01             196.474          -1.219e+02             288.100           4.000e+01     
 143.000         270.000           -1.630e+01          -1.630e+01             199.574          -1.219e+02             288.714           4.000e+01     
 142.000         270.000           -1.659e+01          -1.659e+01             202.919          -1.219e+02             289.294           4.000e+01     
 141.000         270.000           -1.688e+01          -1.688e+01             206.521          -1.218e+02             289.839           4.000e+01     
 140.000         270.000           -1.714e+01          -1.714e+01             210.389          -1.218e+02             290.352           4.000e+01     
 139.000         270.000           -1.739e+01          -1.739e+01             214.526          -1.218e+02             290.831           4.000e+01     
 138.000         270.000           -1.761e+01          -1.761e+01             218.921          -1.218e+02             291.278           4.000e+01     
 137.000         270.000           -1.778e+01          -1.778e+01             223.555          -1.218e+02             291.692           4.000e+01     
 136.000         270.000           -1.791e+01          -1.791e+01             228.392          -1.218e+02             292.074           4.000e+01     
 135.000         270.000           -1.799e+01          -1.799e+01             233.385          -1.218e+02             292.424           4.000e+01     
 134.000         270.000           -1.801e+01          -1.801e+01             238.472          -1.218e+02             292.743           4.000e+01     
 133.000         270.000           -1.797e+01          -1.797e+01             243.585          -1.218e+02             293.030           4.000e+01     
 132.000         270.000           -1.787e+01          -1.787e+01             248.653          -1.218e+02             293.286           4.000e+01     
 131.000         270.000           -1.771e+01          -1.771e+01             253.609          -1.218e+02             293.511           4.000e+01     
 130.000         270.000           -1.750e+01          -1.750e+01             258.392          -1.218e+02             293.706           4.000e+01     
 129.000         270.000           -1.725e+01          -1.725e+01             262.958          -1.218e+02             293.870           4.000e+01     
 128.000         270.000           -1.695e+01          -1.695e+01             267.273          -1.218e+02             294.005           4.000e+01     
 127.000         270.000           -1.663e+01          -1.663e+01             271.319          -1.218e+02             294.108           4.000e+01     
 126.000         270.000           -1.628e+01          -1.628e+01             275.089          -1.218e+02             294.182           4.000e+01     
 125.000         270.000           -1.591e+01          -1.591e+01             278.585          -1.218e+02             294.227           4.000e+01     
 124.000         270.000           -1.554e+01          -1.554e+01             281.817          -1.218e+02             294.241           4.000e+01     
 123.000         270.000           -1.516e+01          -1.516e+01             284.800          -1.218e+02             294.226           4.000e+01     
 122.000         270.000           -1.478e+01          -1.478e+01             287.548          -1.218e+02             294.181           4.000e+01     
 121.000         270.000           -1.440e+01          -1.440e+01             290.081          -1.218e+02             294.106           4.000e+01     
 120.000         270.000           -1.402e+01          -1.402e+01             292.415          -1.218e+02             294.002           4.000e+01     
 119.000         270.000           -1.365e+01          -1.365e+01             294.569          -1.218e+02             293.869           4.000e+01     
 118.000         270.000           -1.328e+01          -1.328e+01             296.558          -1.218e+02             293.706           4.000e+01     
 117.000         270.000           -1.293e+01          -1.293e+01             298.397          -1.218e+02             293.515           4.000e+01     
 116.000         270.000           -1.258e+01          -1.258e+01             300.101          -1.218e+02             293.293           4.000e+01     
 115.000         270.000           -1.224e+01          -1.224e+01             301.682          -1.218e+02             293.043           4.000e+01     
 114.000         270.000           -1.191e+01          -1.191e+01             303.151          -1.218e+02             292.764           4.000e+01     
 113.000         270.000           -1.159e+01          -1.159e+01             304.519          -1.218e+02             292.455           4.000e+01     
 112.000         270.000           -1.128e+01          -1.128e+01             305.794          -1.218e+02             292.118           4.000e+01     
 111.000         270.000           -1.097e+01          -1.097e+01             306.984          -1.218e+02             291.751           4.000e+01     
 110.000         270.000           -1.068e+01          -1.068e+01             308.098          -1.217e+02             291.357           4.000e+01     
 109.000         270.000           -1.039e+01          -1.039e+01             309.140          -1.217e+02             290.933           4.000e+01     
 108.000         270.000           -1.012e+01          -1.012e+01             310.118          -1.217e+02             290.482           4.000e+01     
 107.000         270.000           -9.845e+00          -9.845e+00             311.036          -1.217e+02             290.002           4.000e+01     
 106.000         270.000           -9.582e+00          -9.582e+00             311.899          -1.217e+02             289.495           4.000e+01     
 105.000         270.000           -9.326e+00          -9.326e+00             312.711          -1.217e+02             288.960           4.000e+01     
 104.000         270.000           -9.078e+00          -9.078e+00             313.476          -1.217e+02             288.399           4.000e+01     
 103.000         270.000           -8.836e+00          -8.836e+00             314.196          -1.217e+02             287.811           4.000e+01     
 102.000         270.000           -8.600e+00          -8.600e+00             314.876          -1.216e+02             287.197           4.000e+01     
 101.000         270.000           -8.371e+00          -8.371e+00             315.517          -1.216e+02             286.557           4.000e+01     
 100.000         270.000           -8.147e+00          -8.147e+00             316.123          -1.216e+02             285.893           4.000e+01     
  99.000         270.000           -7.928e+00          -7.928e+00             316.694          -1.216e+02             285.204           4.000e+01     
  98.000         270.000           -7.715e+00          -7.715e+00             317.234          -1.215e+02             284.492           4.000e+01     
  97.000         270.000           -7.507e+00          -7.507e+00             317.745          -1.215e+02             283.757           4.000e+01     
  96.000         270.000           -7.304e+00          -7.304e+00             318.227          -1.215e+02             283.001           4.000e+01     
  95.000         270.000           -7.105e+00          -7.105e+00             318.682          -1.214e+02             282.224           4.000e+01     
  94.000         270.000           -6.911e+00          -6.911e+00             319.112          -1.214e+02             281.427           4.000e+01     
  93.000         270.000           -6.720e+00          -6.720e+00             319.517          -1.214e+02             280.611           4.000e+01     
  92.000         270.000           -6.534e+00          -6.534e+00             319.900          -1.213e+02             279.778           4.000e+01     
  91.000         270.000           -6.351e+00          -6.351e+00             320.261          -1.213e+02             278.928           4.000e+01     
  90.000         270.000           -6.172e+00          -6.172e+00             320.601          -1.212e+02             278.063           4.000e+01     
  89.000         270.000           -5.996e+00          -5.996e+00             320.921          -1.211e+02             277.184           4.000e+01     
  88.000         270.000           -5.823e+00          -5.823e+00             321.222          -1.211e+02             276.292           4.000e+01     
  87.000         270.000           -5.653e+00          -5.653e+00             321.504          -1.210e+02             275.389           4.000e+01     
  86.000         270.000           -5.486e+00          -5.486e+00             321.769          -1.209e+02             274.476           4.000e+01     
  85.000         270.000           -5.322e+00          -5.322e+00             322.016          -1.209e+02             273.554           4.000e+01     
  84.000         270.000           -5.161e+00          -5.161e+00             322.247          -1.208e+02             272.625           4.000e+01     
  83.000         270.000           -5.002e+00          -5.002e+00             322.462          -1.207e+02             271.691           4.000e+01     
  82.000         270.000           -4.845e+00          -4.845e+00             322.662          -1.206e+02             270.751           4.000e+01     
  81.000         270.000           -4.690e+00          -4.690e+00             322.848          -1.206e+02             269.809           4.000e+01     
  80.000         270.000           -4.538e+00          -4.538e+00             323.018          -1.205e+02             268.864           4.000e+01     
  79.000         270.000           -4.387e+00          -4.387e+00             323.176          -1.204e+02             267.920           4.000e+01     
  78.000         270.000           -4.239e+00          -4.239e+00             323.319          -1.203e+02             266.975           4.000e+01     
  77.000         270.000           -4.092e+00          -4.092e+00             323.450          -1.202e+02             266.033           4.000e+01     
  76.000         270.000           -3.947e+00          -3.947e+00             323.569          -1.201e+02             265.094           4.000e+01     
  75.000         270.000           -3.804e+00          -3.804e+00             323.675          -1.200e+02             264.159           4.000e+01     
  74.000         270.000           -3.662e+00          -3.662e+00             323.770          -1.199e+02             263.230           4.000e+01     
  73.000         270.000           -3.522e+00          -3.522e+00             323.853          -1.198e+02             262.307           4.000e+01     
  72.000         270.000           -3.384e+00          -3.384e+00             323.925          -1.197e+02             261.391           4.000e+01     
  71.000         270.000           -3.246e+00          -3.246e+00             323.987          -1.196e+02             260.483           4.000e+01     
  70.000         270.000           -3.111e+00          -3.111e+00             324.038          -1.195e+02             259.584           4.000e+01     
  69.000         270.000           -2.976e+00          -2.976e+00             324.079          -1.193e+02             258.695           4.000e+01     
  68.000         270.000           -2.843e+00          -2.843e+00             324.111          -1.192e+02             257.816           4.000e+01     
  67.000         270.000           -2.711e+00          -2.711e+00             324.134          -1.191e+02             256.948           4.000e+01     
  66.000         270.000           -2.580e+00          -2.580e+00             324.147          -1.190e+02             256.092           4.000e+01     
  65.000         270.000           -2.451e+00          -2.451e+00             324.152          -1.189e+02             255.247           4.000e+01     
  64.000         270.000           -2.323e+00          -2.323e+00             324.148          -1.188e+02             254.415           4.000e+01     
  63.000         270.000           -2.195e+00          -2.195e+00             324.137          -1.187e+02             253.596           4.000e+01     
  62.000         270.000           -2.069e+00          -2.069e+00             324.117          -1.185e+02             252.790           4.000e+01     
  61.000         270.000           -1.944e+00          -1.944e+00             324.090          -1.184e+02             251.997           4.000e+01     
  60.000         270.000           -1.820e+00          -1.820e+00             324.056          -1.183e+02             251.217           4.000e+01     
  59.000         270.000           -1.697e+00          -1.697e+00             324.015          -1.182e+02             250.452           4.000e+01     
  58.000         270.000           -1.576e+00          -1.576e+00             323.967          -1.181e+02             249.700           4.000e+01     
  57.000         270.000           -1.455e+00          -1.455e+00             323.913          -1.180e+02             248.962           4.000e+01     
  56.000         270.000           -1.335e+00          -1.335e+00             323.852          -1.179e+02             248.238           4.000e+01     
  55.000         270.000           -1.217e+00          -1.217e+00             323.786          -1.178e+02             247.528           4.000e+01     
  54.000         270.000           -1.099e+00          -1.099e+00             323.714          -1.177e+02             246.831           4.000e+01     
  53.000         270.000           -9.829e-01          -9.829e-01             323.637          -1.176e+02             246.149           4.000e+01     
  52.000         270.000           -8.676e-01          -8.676e-01             323.555          -1.175e+02             245.481           4.000e+01     
  51.000         270.000           -7.534e-01          -7.534e-01             323.468          -1.174e+02             244.826           4.000e+01     
  50.000         270.000           -6.403e-01          -6.403e-01             323.377          -1.173e+02             244.185           4.000e+01     
  49.000         270.000           -5.284e-01          -5.284e-01             323.281          -1.172e+02             243.557           4.000e+01     
  48.000         270.000           -4.176e-01          -4.176e-01             323.181          -1.171e+02             242.943           4.000e+01     
  47.000         270.000           -3.080e-01          -3.080e-01             323.077          -1.170e+02             242.342           4.000e+01     
  46.000         270.000           -1.996e-01          -1.996e-01             322.970          -1.169e+02             241.754           4.000e+01     
  45.000         270.000           -9.233e-02          -9.233e-02             322.859          -1.168e+02             241.178           4.000e+01     
  44.000         270.000            1.365e-02           1.365e-02             322.745          -1.167e+02             240.616           4.000e+01     
  43.000         270.000            1.184e-01           1.184e-01             322.628          -1.166e+02             240.066           4.000e+01     
  42.000         270.000            2.218e-01           2.218e-01             322.509          -1.166e+02             239.529           4.000e+01     
  41.000         270.000            3.239e-01           3.239e-01             322.387          -1.165e+02             239.004           4.000e+01     
  40.000         270.000            4.247e-01           4.247e-01             322.262          -1.164e+02             238.491           4.000e+01     
  39.000         270.000            5.240e-01           5.240e-01             322.136          -1.164e+02             237.989           4.000e+01     
  38.000         270.000            6.220e-01           6.220e-01             322.007          -1.163e+02             237.500           4.000e+01     
  37.000         270.000            7.185e-01           7.185e-01             321.877          -1.163e+02             237.022           4.000e+01     
  36.000         270.000            8.136e-01           8.136e-01             321.746          -1.162e+02             236.556           4.000e+01     
  35.000         270.000            9.071e-01           9.071e-01             321.613          -1.162e+02             236.101           4.000e+01     
  34.000         270.000            9.991e-01           9.991e-01             321.479          -1.161e+02             235.656           4.000e+01     
  33.000         270.000            1.090e+00           1.090e+00             321.344          -1.161e+02             235.223           4.000e+01     
  32.000         270.000            1.178e+00           1.178e+00             321.208          -1.160e+02             234.800           4.000e+01     
  31.000         270.000            1.266e+00           1.266e+00             321.071          -1.160e+02             234.388           4.000e+01     
  30.000         270.000            1.351e+00           1.351e+00             320.934          -1.160e+02             233.987           4.000e+01     
  29.000         270.000            1.435e+00           1.435e+00             320.796          -1.160e+02             233.596           4.000e+01     
  28.000         270.000            1.517e+00           1.517e+00             320.658          -1.160e+02             233.215           4.000e+01     
  27.000         270.000            1.597e+00           1.597e+00             320.521          -1.159e+02             232.844           4.000e+01     
  26.000         270.000            1.675e+00           1.675e+00             320.383          -1.159e+02             232.484           4.000e+01     
  25.000         270.000            1.752e+00           1.752e+00             320.245          -1.159e+02             232.133           4.000e+01     
  24.000         270.000            1.826e+00           1.826e+00             320.108          -1.159e+02             231.792           4.000e+01     
  23.000         270.000            1.899e+00           1.899e+00             319.971          -1.160e+02             231.461           4.000e+01     
  22.000         270.000            1.970e+00           1.970e+00             319.834          -1.160e+02             231.139           4.000e+01     
  21.000         270.000            2.038e+00           2.038e+00             319.698          -1.160e+02             230.827           4.000e+01     
  20.000         270.000            2.105e+00           2.105e+00             319.563          -1.160e+02             230.524           4.000e+01     
  19.000         270.000            2.169e+00           2.169e+00             319.428          -1.160e+02             230.231           4.000e+01     
  18.000         270.000            2.232e+00           2.232e+00             319.295          -1.161e+02             229.947           4.000e+01     
  17.000         270.000            2.292e+00           2.292e+00             319.162          -1.161e+02             229.672           4.000e+01     
  16.000         270.000            2.350e+00           2.350e+00             319.030          -1.162e+02             229.407           4.000e+01     
  15.000         270.000            2.406e+00           2.406e+00             318.900          -1.162e+02             229.150           4.000e+01     
  14.000         270.000            2.459e+00           2.459e+00             318.771          -1.163e+02             228.903           4.000e+01     
  13.000         270.000            2.510e+00           2.510e+00             318.642          -1.163e+02             228.664           4.000e+01     
  12.000         270.000            2.559e+00           2.559e+00             318.516          -1.164e+02             228.435           4.000e+01     
  11.000         270.000            2.605e+00           2.605e+00             318.390          -1.165e+02             228.214           4.000e+01     
  10.000         270.000            2.649e+00           2.649e+00             318.266          -1.165e+02             228.003           4.000e+01     
   9.000         270.000            2.691e+00           2.691e+00             318.144          -1.166e+02             227.800           4.000e+01     
   8.000         270.000            2.730e+00           2.730e+00             318.023          -1.167e+02             227.606           4.000e+01     
   7.000         270.000            2.767e+00           2.767e+00             317.903          -1.168e+02             227.420           4.000e+01     
   6.000         270.000            2.801e+00           2.801e+00             317.785          -1.169e+02             227.243           4.000e+01     
   5.000         270.000            2.832e+00           2.832e+00             317.669          -1.170e+02             227.075           4.000e+01     
   4.000         270.000            2.861e+00           2.861e+00             317.554          -1.171e+02             226.915           4.000e+01     
   3.000         270.000            2.887e+00           2.887e+00             317.441          -1.173e+02             226.763           4.000e+01     
   2.000         270.000            2.911e+00           2.911e+00             317.330          -1.174e+02             226.620           4.000e+01     
   1.000         270.000            2.932e+00           2.932e+00             317.221          -1.175e+02             226.485           4.000e+01     
