Theta [deg.]  Phi   [deg.]  Abs(Gain)[dBi   ]   Abs(Theta)[dBi   ]  Phase(Theta)[deg.]  Abs(Phi  )[dBi   ]  Phase(Phi  )[deg.]  Ax.Ratio[dB    ]    
------------------------------------------------------------------------------------------------------------------------------------------------------
   0.000          90.000            2.732e+00           2.732e+00             144.407          -1.228e+02              37.158           4.000e+01     
   1.000          90.000            2.743e+00           2.743e+00             144.424          -1.231e+02              36.139           4.000e+01     
   2.000          90.000            2.752e+00           2.752e+00             144.442          -1.233e+02              35.078           4.000e+01     
   3.000          90.000            2.758e+00           2.758e+00             144.461          -1.236e+02              33.976           4.000e+01     
   4.000          90.000            2.761e+00           2.761e+00             144.481          -1.238e+02              32.827           4.000e+01     
   5.000          90.000            2.762e+00           2.762e+00             144.501          -1.241e+02              31.629           4.000e+01     
   6.000          90.000            2.760e+00           2.760e+00             144.523          -1.244e+02              30.377           4.000e+01     
   7.000          90.000            2.755e+00           2.755e+00             144.546          -1.247e+02              29.067           4.000e+01     
   8.000          90.000            2.747e+00           2.747e+00             144.569          -1.250e+02              27.695           4.000e+01     
   9.000          90.000            2.737e+00           2.737e+00             144.594          -1.253e+02              26.256           4.000e+01     
  10.000          90.000            2.724e+00           2.724e+00             144.620          -1.256e+02              24.745           4.000e+01     
  11.000          90.000            2.708e+00           2.708e+00             144.647          -1.259e+02              23.158           4.000e+01     
  12.000          90.000            2.690e+00           2.690e+00             144.675          -1.262e+02              21.489           4.000e+01     
  13.000          90.000            2.669e+00           2.669e+00             144.704          -1.265e+02              19.734           4.000e+01     
  14.000          90.000            2.645e+00           2.645e+00             144.734          -1.268e+02              17.888           4.000e+01     
  15.000          90.000            2.618e+00           2.618e+00             144.766          -1.271e+02              15.948           4.000e+01     
  16.000          90.000            2.589e+00           2.589e+00             144.799          -1.274e+02              13.909           4.000e+01     
  17.000          90.000            2.556e+00           2.556e+00             144.833          -1.277e+02              11.768           4.000e+01     
  18.000          90.000            2.521e+00           2.521e+00             144.868          -1.279e+02               9.526           4.000e+01     
  19.000          90.000            2.484e+00           2.484e+00             144.905          -1.282e+02               7.180           4.000e+01     
  20.000          90.000            2.443e+00           2.443e+00             144.943          -1.285e+02               4.733           4.000e+01     
  21.000          90.000            2.400e+00           2.400e+00             144.983          -1.288e+02               2.190           4.000e+01     
  22.000          90.000            2.354e+00           2.354e+00             145.024          -1.290e+02             359.556           4.000e+01     
  23.000          90.000            2.305e+00           2.305e+00             145.066          -1.292e+02             356.840           4.000e+01     
  24.000          90.000            2.254e+00           2.254e+00             145.111          -1.294e+02             354.054           4.000e+01     
  25.000          90.000            2.200e+00           2.200e+00             145.156          -1.296e+02             351.213           4.000e+01     
  26.000          90.000            2.143e+00           2.143e+00             145.204          -1.298e+02             348.333           4.000e+01     
  27.000          90.000            2.083e+00           2.083e+00             145.253          -1.299e+02             345.433           4.000e+01     
  28.000          90.000            2.021e+00           2.021e+00             145.303          -1.300e+02             342.534           4.000e+01     
  29.000          90.000            1.955e+00           1.955e+00             145.356          -1.301e+02             339.657           4.000e+01     
  30.000          90.000            1.888e+00           1.888e+00             145.410          -1.302e+02             336.822           4.000e+01     
  31.000          90.000            1.817e+00           1.817e+00             145.466          -1.302e+02             334.051           4.000e+01     
  32.000          90.000            1.744e+00           1.744e+00             145.525          -1.302e+02             331.362           4.000e+01     
  33.000          90.000            1.668e+00           1.668e+00             145.585          -1.302e+02             328.771           4.000e+01     
  34.000          90.000            1.589e+00           1.589e+00             145.647          -1.302e+02             326.293           4.000e+01     
  35.000          90.000            1.508e+00           1.508e+00             145.712          -1.302e+02             323.940           4.000e+01     
  36.000          90.000            1.424e+00           1.424e+00             145.779          -1.301e+02             321.719           4.000e+01     
  37.000          90.000            1.337e+00           1.337e+00             145.848          -1.300e+02             319.639           4.000e+01     
  38.000          90.000            1.248e+00           1.248e+00             145.920          -1.299e+02             317.701           4.000e+01     
  39.000          90.000            1.156e+00           1.156e+00             145.994          -1.298e+02             315.909           4.000e+01     
  40.000          90.000            1.062e+00           1.062e+00             146.071          -1.297e+02             314.261           4.000e+01     
  41.000          90.000            9.647e-01           9.647e-01             146.151          -1.296e+02             312.756           4.000e+01     
  42.000          90.000            8.650e-01           8.650e-01             146.233          -1.295e+02             311.392           4.000e+01     
  43.000          90.000            7.627e-01           7.627e-01             146.318          -1.294e+02             310.164           4.000e+01     
  44.000          90.000            6.579e-01           6.579e-01             146.407          -1.293e+02             309.069           4.000e+01     
  45.000          90.000            5.506e-01           5.506e-01             146.498          -1.292e+02             308.102           4.000e+01     
  46.000          90.000            4.407e-01           4.407e-01             146.593          -1.290e+02             307.257           4.000e+01     
  47.000          90.000            3.283e-01           3.283e-01             146.691          -1.289e+02             306.530           4.000e+01     
  48.000          90.000            2.134e-01           2.134e-01             146.793          -1.288e+02             305.916           4.000e+01     
  49.000          90.000            9.601e-02           9.601e-02             146.898          -1.287e+02             305.410           4.000e+01     
  50.000          90.000           -2.386e-02          -2.386e-02             147.008          -1.286e+02             305.006           4.000e+01     
  51.000          90.000           -1.462e-01          -1.462e-01             147.121          -1.285e+02             304.699           4.000e+01     
  52.000          90.000           -2.710e-01          -2.710e-01             147.238          -1.284e+02             304.486           4.000e+01     
  53.000          90.000           -3.982e-01          -3.982e-01             147.360          -1.282e+02             304.361           4.000e+01     
  54.000          90.000           -5.278e-01          -5.278e-01             147.486          -1.281e+02             304.320           4.000e+01     
  55.000          90.000           -6.598e-01          -6.598e-01             147.617          -1.280e+02             304.359           4.000e+01     
  56.000          90.000           -7.942e-01          -7.942e-01             147.753          -1.279e+02             304.474           4.000e+01     
  57.000          90.000           -9.310e-01          -9.310e-01             147.893          -1.278e+02             304.660           4.000e+01     
  58.000          90.000           -1.070e+00          -1.070e+00             148.039          -1.277e+02             304.914           4.000e+01     
  59.000          90.000           -1.212e+00          -1.212e+00             148.190          -1.276e+02             305.231           4.000e+01     
  60.000          90.000           -1.356e+00          -1.356e+00             148.347          -1.275e+02             305.609           4.000e+01     
  61.000          90.000           -1.502e+00          -1.502e+00             148.510          -1.274e+02             306.043           4.000e+01     
  62.000          90.000           -1.650e+00          -1.650e+00             148.678          -1.273e+02             306.530           4.000e+01     
  63.000          90.000           -1.801e+00          -1.801e+00             148.853          -1.272e+02             307.066           4.000e+01     
  64.000          90.000           -1.954e+00          -1.954e+00             149.035          -1.271e+02             307.649           4.000e+01     
  65.000          90.000           -2.110e+00          -2.110e+00             149.223          -1.270e+02             308.274           4.000e+01     
  66.000          90.000           -2.267e+00          -2.267e+00             149.418          -1.269e+02             308.938           4.000e+01     
  67.000          90.000           -2.427e+00          -2.427e+00             149.621          -1.268e+02             309.638           4.000e+01     
  68.000          90.000           -2.590e+00          -2.590e+00             149.831          -1.267e+02             310.371           4.000e+01     
  69.000          90.000           -2.754e+00          -2.754e+00             150.049          -1.266e+02             311.133           4.000e+01     
  70.000          90.000           -2.921e+00          -2.921e+00             150.275          -1.265e+02             311.923           4.000e+01     
  71.000          90.000           -3.090e+00          -3.090e+00             150.510          -1.264e+02             312.735           4.000e+01     
  72.000          90.000           -3.262e+00          -3.262e+00             150.754          -1.263e+02             313.569           4.000e+01     
  73.000          90.000           -3.436e+00          -3.436e+00             151.006          -1.262e+02             314.420           4.000e+01     
  74.000          90.000           -3.612e+00          -3.612e+00             151.268          -1.261e+02             315.287           4.000e+01     
  75.000          90.000           -3.791e+00          -3.791e+00             151.540          -1.260e+02             316.166           4.000e+01     
  76.000          90.000           -3.971e+00          -3.971e+00             151.822          -1.259e+02             317.056           4.000e+01     
  77.000          90.000           -4.155e+00          -4.155e+00             152.114          -1.258e+02             317.953           4.000e+01     
  78.000          90.000           -4.340e+00          -4.340e+00             152.418          -1.257e+02             318.857           4.000e+01     
  79.000          90.000           -4.529e+00          -4.529e+00             152.733          -1.256e+02             319.764           4.000e+01     
  80.000          90.000           -4.719e+00          -4.719e+00             153.060          -1.255e+02             320.673           4.000e+01     
  81.000          90.000           -4.912e+00          -4.912e+00             153.399          -1.254e+02             321.583           4.000e+01     
  82.000          90.000           -5.108e+00          -5.108e+00             153.750          -1.253e+02             322.491           4.000e+01     
  83.000          90.000           -5.306e+00          -5.306e+00             154.115          -1.252e+02             323.397           4.000e+01     
  84.000          90.000           -5.507e+00          -5.507e+00             154.494          -1.251e+02             324.299           4.000e+01     
  85.000          90.000           -5.711e+00          -5.711e+00             154.887          -1.250e+02             325.195           4.000e+01     
  86.000          90.000           -5.917e+00          -5.917e+00             155.295          -1.249e+02             326.086           4.000e+01     
  87.000          90.000           -6.126e+00          -6.126e+00             155.718          -1.248e+02             326.970           4.000e+01     
  88.000          90.000           -6.338e+00          -6.338e+00             156.158          -1.246e+02             327.846           4.000e+01     
  89.000          90.000           -6.554e+00          -6.554e+00             156.614          -1.245e+02             328.715           4.000e+01     
  90.000          90.000           -6.772e+00          -6.772e+00             157.088          -1.244e+02             329.576           4.000e+01     
  91.000          90.000           -6.993e+00          -6.993e+00             157.581          -1.243e+02             330.427           4.000e+01     
  92.000          90.000           -7.218e+00          -7.218e+00             158.092          -1.243e+02             331.270           4.000e+01     
  93.000          90.000           -7.446e+00          -7.446e+00             158.624          -1.242e+02             332.104           4.000e+01     
  94.000          90.000           -7.677e+00          -7.677e+00             159.177          -1.241e+02             332.928           4.000e+01     
  95.000          90.000           -7.912e+00          -7.912e+00             159.751          -1.240e+02             333.744           4.000e+01     
  96.000          90.000           -8.151e+00          -8.151e+00             160.349          -1.239e+02             334.551           4.000e+01     
  97.000          90.000           -8.394e+00          -8.394e+00             160.971          -1.238e+02             335.350           4.000e+01     
  98.000          90.000           -8.641e+00          -8.641e+00             161.619          -1.237e+02             336.141           4.000e+01     
  99.000          90.000           -8.892e+00          -8.892e+00             162.294          -1.236e+02             336.924           4.000e+01     
 100.000          90.000           -9.147e+00          -9.147e+00             162.998          -1.236e+02             337.700           4.000e+01     
 101.000          90.000           -9.408e+00          -9.408e+00             163.732          -1.235e+02             338.469           4.000e+01     
 102.000          90.000           -9.673e+00          -9.673e+00             164.498          -1.234e+02             339.233           4.000e+01     
 103.000          90.000           -9.943e+00          -9.943e+00             165.298          -1.234e+02             339.991           4.000e+01     
 104.000          90.000           -1.022e+01          -1.022e+01             166.135          -1.233e+02             340.744           4.000e+01     
 105.000          90.000           -1.050e+01          -1.050e+01             167.011          -1.233e+02             341.494           4.000e+01     
 106.000          90.000           -1.079e+01          -1.079e+01             167.929          -1.232e+02             342.240           4.000e+01     
 107.000          90.000           -1.108e+01          -1.108e+01             168.892          -1.232e+02             342.985           4.000e+01     
 108.000          90.000           -1.138e+01          -1.138e+01             169.904          -1.231e+02             343.727           4.000e+01     
 109.000          90.000           -1.169e+01          -1.169e+01             170.967          -1.231e+02             344.470           4.000e+01     
 110.000          90.000           -1.200e+01          -1.200e+01             172.087          -1.230e+02             345.212           4.000e+01     
 111.000          90.000           -1.232e+01          -1.232e+01             173.269          -1.230e+02             345.956           4.000e+01     
 112.000          90.000           -1.265e+01          -1.265e+01             174.518          -1.230e+02             346.703           4.000e+01     
 113.000          90.000           -1.298e+01          -1.298e+01             175.840          -1.230e+02             347.453           4.000e+01     
 114.000          90.000           -1.333e+01          -1.333e+01             177.242          -1.229e+02             348.208           4.000e+01     
 115.000          90.000           -1.368e+01          -1.368e+01             178.733          -1.229e+02             348.968           4.000e+01     
 116.000          90.000           -1.404e+01          -1.404e+01             180.320          -1.229e+02             349.736           4.000e+01     
 117.000          90.000           -1.441e+01          -1.441e+01             182.015          -1.229e+02             350.512           4.000e+01     
 118.000          90.000           -1.479e+01          -1.479e+01             183.829          -1.229e+02             351.297           4.000e+01     
 119.000          90.000           -1.518e+01          -1.518e+01             185.774          -1.229e+02             352.093           4.000e+01     
 120.000          90.000           -1.557e+01          -1.557e+01             187.866          -1.229e+02             352.901           4.000e+01     
 121.000          90.000           -1.598e+01          -1.598e+01             190.120          -1.230e+02             353.724           4.000e+01     
 122.000          90.000           -1.639e+01          -1.639e+01             192.556          -1.230e+02             354.561           4.000e+01     
 123.000          90.000           -1.680e+01          -1.680e+01             195.193          -1.230e+02             355.416           4.000e+01     
 124.000          90.000           -1.722e+01          -1.722e+01             198.052          -1.230e+02             356.289           4.000e+01     
 125.000          90.000           -1.764e+01          -1.764e+01             201.157          -1.231e+02             357.182           4.000e+01     
 126.000          90.000           -1.806e+01          -1.806e+01             204.530          -1.231e+02             358.097           4.000e+01     
 127.000          90.000           -1.847e+01          -1.847e+01             208.195          -1.232e+02             359.037           4.000e+01     
 128.000          90.000           -1.887e+01          -1.887e+01             212.170          -1.232e+02               0.003           4.000e+01     
 129.000          90.000           -1.925e+01          -1.925e+01             216.470          -1.233e+02               0.996           4.000e+01     
 130.000          90.000           -1.959e+01          -1.959e+01             221.098          -1.233e+02               2.020           4.000e+01     
 131.000          90.000           -1.990e+01          -1.990e+01             226.046          -1.234e+02               3.077           4.000e+01     
 132.000          90.000           -2.016e+01          -2.016e+01             231.288          -1.235e+02               4.169           4.000e+01     
 133.000          90.000           -2.035e+01          -2.035e+01             236.779          -1.236e+02               5.298           4.000e+01     
 134.000          90.000           -2.048e+01          -2.048e+01             242.453          -1.237e+02               6.467           4.000e+01     
 135.000          90.000           -2.054e+01          -2.054e+01             248.229          -1.237e+02               7.678           4.000e+01     
 136.000          90.000           -2.052e+01          -2.052e+01             254.016          -1.238e+02               8.935           4.000e+01     
 137.000          90.000           -2.042e+01          -2.042e+01             259.719          -1.239e+02              10.239           4.000e+01     
 138.000          90.000           -2.026e+01          -2.026e+01             265.257          -1.240e+02              11.595           4.000e+01     
 139.000          90.000           -2.004e+01          -2.004e+01             270.559          -1.241e+02              13.003           4.000e+01     
 140.000          90.000           -1.976e+01          -1.976e+01             275.577          -1.242e+02              14.468           4.000e+01     
 141.000          90.000           -1.945e+01          -1.945e+01             280.281          -1.243e+02              15.992           4.000e+01     
 142.000          90.000           -1.910e+01          -1.910e+01             284.661          -1.244e+02              17.576           4.000e+01     
 143.000          90.000           -1.873e+01          -1.873e+01             288.718          -1.245e+02              19.225           4.000e+01     
 144.000          90.000           -1.835e+01          -1.835e+01             292.466          -1.247e+02              20.939           4.000e+01     
 145.000          90.000           -1.796e+01          -1.796e+01             295.922          -1.248e+02              22.721           4.000e+01     
 146.000          90.000           -1.757e+01          -1.757e+01             299.109          -1.249e+02              24.572           4.000e+01     
 147.000          90.000           -1.718e+01          -1.718e+01             302.049          -1.250e+02              26.492           4.000e+01     
 148.000          90.000           -1.680e+01          -1.680e+01             304.767          -1.251e+02              28.483           4.000e+01     
 149.000          90.000           -1.642e+01          -1.642e+01             307.284          -1.252e+02              30.543           4.000e+01     
 150.000          90.000           -1.605e+01          -1.605e+01             309.621          -1.252e+02              32.671           4.000e+01     
 151.000          90.000           -1.569e+01          -1.569e+01             311.795          -1.253e+02              34.864           4.000e+01     
 152.000          90.000           -1.534e+01          -1.534e+01             313.825          -1.254e+02              37.120           4.000e+01     
 153.000          90.000           -1.500e+01          -1.500e+01             315.725          -1.254e+02              39.435           4.000e+01     
 154.000          90.000           -1.467e+01          -1.467e+01             317.508          -1.255e+02              41.802           4.000e+01     
 155.000          90.000           -1.435e+01          -1.435e+01             319.187          -1.255e+02              44.214           4.000e+01     
 156.000          90.000           -1.404e+01          -1.404e+01             320.771          -1.256e+02              46.665           4.000e+01     
 157.000          90.000           -1.374e+01          -1.374e+01             322.271          -1.256e+02              49.146           4.000e+01     
 158.000          90.000           -1.346e+01          -1.346e+01             323.695          -1.256e+02              51.647           4.000e+01     
 159.000          90.000           -1.318e+01          -1.318e+01             325.049          -1.256e+02              54.158           4.000e+01     
 160.000          90.000           -1.292e+01          -1.292e+01             326.340          -1.255e+02              56.668           4.000e+01     
 161.000          90.000           -1.266e+01          -1.266e+01             327.575          -1.255e+02              59.168           4.000e+01     
 162.000          90.000           -1.241e+01          -1.241e+01             328.757          -1.254e+02              61.647           4.000e+01     
 163.000          90.000           -1.218e+01          -1.218e+01             329.893          -1.253e+02              64.094           4.000e+01     
 164.000          90.000           -1.195e+01          -1.195e+01             330.985          -1.252e+02              66.500           4.000e+01     
 165.000          90.000           -1.173e+01          -1.173e+01             332.038          -1.251e+02              68.857           4.000e+01     
 166.000          90.000           -1.153e+01          -1.153e+01             333.055          -1.250e+02              71.157           4.000e+01     
 167.000          90.000           -1.132e+01          -1.132e+01             334.039          -1.249e+02              73.392           4.000e+01     
 168.000          90.000           -1.113e+01          -1.113e+01             334.993          -1.248e+02              75.558           4.000e+01     
 169.000          90.000           -1.095e+01          -1.095e+01             335.919          -1.246e+02              77.650           4.000e+01     
 170.000          90.000           -1.077e+01          -1.077e+01             336.819          -1.245e+02              79.664           4.000e+01     
 171.000          90.000           -1.061e+01          -1.061e+01             337.696          -1.243e+02              81.599           4.000e+01     
 172.000          90.000           -1.045e+01          -1.045e+01             338.551          -1.242e+02              83.452           4.000e+01     
 173.000          90.000           -1.030e+01          -1.030e+01             339.386          -1.240e+02              85.222           4.000e+01     
 174.000          90.000           -1.015e+01          -1.015e+01             340.204          -1.238e+02              86.911           4.000e+01     
 175.000          90.000           -1.002e+01          -1.002e+01             341.004          -1.236e+02              88.519           4.000e+01     
 176.000          90.000           -9.886e+00          -9.886e+00             341.790          -1.235e+02              90.047           4.000e+01     
 177.000          90.000           -9.764e+00          -9.764e+00             342.561          -1.233e+02              91.497           4.000e+01     
 178.000          90.000           -9.649e+00          -9.649e+00             343.320          -1.231e+02              92.870           4.000e+01     
 179.000          90.000           -9.541e+00          -9.541e+00             344.067          -1.229e+02              94.170           4.000e+01     
 180.000          90.000           -9.440e+00          -9.440e+00             344.804          -1.227e+02              95.395           4.000e+01     
 179.000         270.000           -9.346e+00          -9.346e+00             165.532          -1.226e+02             276.555           4.000e+01     
 178.000         270.000           -9.259e+00          -9.259e+00             166.252          -1.224e+02             277.647           4.000e+01     
 177.000         270.000           -9.178e+00          -9.178e+00             166.965          -1.222e+02             278.677           4.000e+01     
 176.000         270.000           -9.105e+00          -9.105e+00             167.672          -1.221e+02             279.645           4.000e+01     
 175.000         270.000           -9.038e+00          -9.038e+00             168.373          -1.219e+02             280.554           4.000e+01     
 174.000         270.000           -8.977e+00          -8.977e+00             169.070          -1.217e+02             281.408           4.000e+01     
 173.000         270.000           -8.924e+00          -8.924e+00             169.764          -1.216e+02             282.209           4.000e+01     
 172.000         270.000           -8.876e+00          -8.876e+00             170.456          -1.214e+02             282.958           4.000e+01     
 171.000         270.000           -8.836e+00          -8.836e+00             171.146          -1.213e+02             283.659           4.000e+01     
 170.000         270.000           -8.802e+00          -8.802e+00             171.835          -1.211e+02             284.313           4.000e+01     
 169.000         270.000           -8.774e+00          -8.774e+00             172.525          -1.210e+02             284.924           4.000e+01     
 168.000         270.000           -8.753e+00          -8.753e+00             173.216          -1.208e+02             285.491           4.000e+01     
 167.000         270.000           -8.739e+00          -8.739e+00             173.909          -1.207e+02             286.019           4.000e+01     
 166.000         270.000           -8.731e+00          -8.731e+00             174.605          -1.206e+02             286.508           4.000e+01     
 165.000         270.000           -8.729e+00          -8.729e+00             175.306          -1.204e+02             286.960           4.000e+01     
 164.000         270.000           -8.734e+00          -8.734e+00             176.012          -1.203e+02             287.378           4.000e+01     
 163.000         270.000           -8.745e+00          -8.745e+00             176.724          -1.202e+02             287.761           4.000e+01     
 162.000         270.000           -8.763e+00          -8.763e+00             177.444          -1.200e+02             288.113           4.000e+01     
 161.000         270.000           -8.787e+00          -8.787e+00             178.172          -1.199e+02             288.434           4.000e+01     
 160.000         270.000           -8.818e+00          -8.818e+00             178.910          -1.198e+02             288.726           4.000e+01     
 159.000         270.000           -8.855e+00          -8.855e+00             179.659          -1.197e+02             288.990           4.000e+01     
 158.000         270.000           -8.899e+00          -8.899e+00             180.420          -1.196e+02             289.227           4.000e+01     
 157.000         270.000           -8.950e+00          -8.950e+00             181.194          -1.195e+02             289.438           4.000e+01     
 156.000         270.000           -9.007e+00          -9.007e+00             181.984          -1.194e+02             289.625           4.000e+01     
 155.000         270.000           -9.070e+00          -9.070e+00             182.791          -1.193e+02             289.788           4.000e+01     
 154.000         270.000           -9.140e+00          -9.140e+00             183.615          -1.192e+02             289.929           4.000e+01     
 153.000         270.000           -9.216e+00          -9.216e+00             184.460          -1.191e+02             290.048           4.000e+01     
 152.000         270.000           -9.299e+00          -9.299e+00             185.327          -1.190e+02             290.146           4.000e+01     
 151.000         270.000           -9.389e+00          -9.389e+00             186.217          -1.190e+02             290.224           4.000e+01     
 150.000         270.000           -9.485e+00          -9.485e+00             187.134          -1.189e+02             290.283           4.000e+01     
 149.000         270.000           -9.588e+00          -9.588e+00             188.078          -1.188e+02             290.324           4.000e+01     
 148.000         270.000           -9.697e+00          -9.697e+00             189.054          -1.187e+02             290.346           4.000e+01     
 147.000         270.000           -9.813e+00          -9.813e+00             190.062          -1.186e+02             290.352           4.000e+01     
 146.000         270.000           -9.935e+00          -9.935e+00             191.106          -1.186e+02             290.342           4.000e+01     
 145.000         270.000           -1.006e+01          -1.006e+01             192.190          -1.185e+02             290.315           4.000e+01     
 144.000         270.000           -1.020e+01          -1.020e+01             193.315          -1.184e+02             290.274           4.000e+01     
 143.000         270.000           -1.034e+01          -1.034e+01             194.486          -1.184e+02             290.217           4.000e+01     
 142.000         270.000           -1.048e+01          -1.048e+01             195.706          -1.183e+02             290.147           4.000e+01     
 141.000         270.000           -1.064e+01          -1.064e+01             196.978          -1.183e+02             290.063           4.000e+01     
 140.000         270.000           -1.079e+01          -1.079e+01             198.308          -1.182e+02             289.965           4.000e+01     
 139.000         270.000           -1.096e+01          -1.096e+01             199.699          -1.181e+02             289.855           4.000e+01     
 138.000         270.000           -1.112e+01          -1.112e+01             201.156          -1.181e+02             289.733           4.000e+01     
 137.000         270.000           -1.130e+01          -1.130e+01             202.683          -1.180e+02             289.599           4.000e+01     
 136.000         270.000           -1.147e+01          -1.147e+01             204.286          -1.180e+02             289.453           4.000e+01     
 135.000         270.000           -1.165e+01          -1.165e+01             205.970          -1.179e+02             289.296           4.000e+01     
 134.000         270.000           -1.183e+01          -1.183e+01             207.739          -1.179e+02             289.128           4.000e+01     
 133.000         270.000           -1.201e+01          -1.201e+01             209.600          -1.179e+02             288.949           4.000e+01     
 132.000         270.000           -1.220e+01          -1.220e+01             211.557          -1.178e+02             288.761           4.000e+01     
 131.000         270.000           -1.238e+01          -1.238e+01             213.615          -1.178e+02             288.562           4.000e+01     
 130.000         270.000           -1.256e+01          -1.256e+01             215.779          -1.177e+02             288.354           4.000e+01     
 129.000         270.000           -1.274e+01          -1.274e+01             218.052          -1.177e+02             288.136           4.000e+01     
 128.000         270.000           -1.291e+01          -1.291e+01             220.437          -1.177e+02             287.909           4.000e+01     
 127.000         270.000           -1.307e+01          -1.307e+01             222.937          -1.176e+02             287.674           4.000e+01     
 126.000         270.000           -1.323e+01          -1.323e+01             225.550          -1.176e+02             287.429           4.000e+01     
 125.000         270.000           -1.337e+01          -1.337e+01             228.277          -1.176e+02             287.176           4.000e+01     
 124.000         270.000           -1.350e+01          -1.350e+01             231.113          -1.175e+02             286.915           4.000e+01     
 123.000         270.000           -1.361e+01          -1.361e+01             234.051          -1.175e+02             286.645           4.000e+01     
 122.000         270.000           -1.371e+01          -1.371e+01             237.083          -1.175e+02             286.367           4.000e+01     
 121.000         270.000           -1.378e+01          -1.378e+01             240.198          -1.175e+02             286.082           4.000e+01     
 120.000         270.000           -1.383e+01          -1.383e+01             243.381          -1.174e+02             285.788           4.000e+01     
 119.000         270.000           -1.386e+01          -1.386e+01             246.616          -1.174e+02             285.487           4.000e+01     
 118.000         270.000           -1.386e+01          -1.386e+01             249.884          -1.174e+02             285.179           4.000e+01     
 117.000         270.000           -1.384e+01          -1.384e+01             253.166          -1.174e+02             284.863           4.000e+01     
 116.000         270.000           -1.379e+01          -1.379e+01             256.440          -1.173e+02             284.539           4.000e+01     
 115.000         270.000           -1.371e+01          -1.371e+01             259.687          -1.173e+02             284.209           4.000e+01     
 114.000         270.000           -1.361e+01          -1.361e+01             262.886          -1.173e+02             283.871           4.000e+01     
 113.000         270.000           -1.348e+01          -1.348e+01             266.020          -1.173e+02             283.526           4.000e+01     
 112.000         270.000           -1.333e+01          -1.333e+01             269.073          -1.173e+02             283.175           4.000e+01     
 111.000         270.000           -1.316e+01          -1.316e+01             272.031          -1.172e+02             282.816           4.000e+01     
 110.000         270.000           -1.298e+01          -1.298e+01             274.885          -1.172e+02             282.450           4.000e+01     
 109.000         270.000           -1.277e+01          -1.277e+01             277.624          -1.172e+02             282.078           4.000e+01     
 108.000         270.000           -1.256e+01          -1.256e+01             280.245          -1.172e+02             281.699           4.000e+01     
 107.000         270.000           -1.233e+01          -1.233e+01             282.745          -1.172e+02             281.313           4.000e+01     
 106.000         270.000           -1.209e+01          -1.209e+01             285.121          -1.172e+02             280.920           4.000e+01     
 105.000         270.000           -1.184e+01          -1.184e+01             287.375          -1.172e+02             280.521           4.000e+01     
 104.000         270.000           -1.159e+01          -1.159e+01             289.509          -1.171e+02             280.116           4.000e+01     
 103.000         270.000           -1.133e+01          -1.133e+01             291.526          -1.171e+02             279.704           4.000e+01     
 102.000         270.000           -1.107e+01          -1.107e+01             293.431          -1.171e+02             279.285           4.000e+01     
 101.000         270.000           -1.080e+01          -1.080e+01             295.227          -1.171e+02             278.860           4.000e+01     
 100.000         270.000           -1.054e+01          -1.054e+01             296.920          -1.171e+02             278.429           4.000e+01     
  99.000         270.000           -1.028e+01          -1.028e+01             298.514          -1.171e+02             277.991           4.000e+01     
  98.000         270.000           -1.001e+01          -1.001e+01             300.016          -1.171e+02             277.547           4.000e+01     
  97.000         270.000           -9.753e+00          -9.753e+00             301.430          -1.171e+02             277.097           4.000e+01     
  96.000         270.000           -9.494e+00          -9.494e+00             302.761          -1.171e+02             276.641           4.000e+01     
  95.000         270.000           -9.237e+00          -9.237e+00             304.014          -1.170e+02             276.179           4.000e+01     
  94.000         270.000           -8.983e+00          -8.983e+00             305.195          -1.170e+02             275.711           4.000e+01     
  93.000         270.000           -8.732e+00          -8.732e+00             306.306          -1.170e+02             275.237           4.000e+01     
  92.000         270.000           -8.484e+00          -8.484e+00             307.353          -1.170e+02             274.758           4.000e+01     
  91.000         270.000           -8.240e+00          -8.240e+00             308.340          -1.170e+02             274.272           4.000e+01     
  90.000         270.000           -7.999e+00          -7.999e+00             309.270          -1.170e+02             273.781           4.000e+01     
  89.000         270.000           -7.762e+00          -7.762e+00             310.146          -1.170e+02             273.285           4.000e+01     
  88.000         270.000           -7.528e+00          -7.528e+00             310.973          -1.170e+02             272.783           4.000e+01     
  87.000         270.000           -7.298e+00          -7.298e+00             311.753          -1.170e+02             272.276           4.000e+01     
  86.000         270.000           -7.072e+00          -7.072e+00             312.488          -1.170e+02             271.764           4.000e+01     
  85.000         270.000           -6.849e+00          -6.849e+00             313.182          -1.170e+02             271.246           4.000e+01     
  84.000         270.000           -6.630e+00          -6.630e+00             313.838          -1.170e+02             270.724           4.000e+01     
  83.000         270.000           -6.414e+00          -6.414e+00             314.456          -1.169e+02             270.197           4.000e+01     
  82.000         270.000           -6.202e+00          -6.202e+00             315.040          -1.169e+02             269.665           4.000e+01     
  81.000         270.000           -5.994e+00          -5.994e+00             315.592          -1.169e+02             269.129           4.000e+01     
  80.000         270.000           -5.788e+00          -5.788e+00             316.113          -1.169e+02             268.588           4.000e+01     
  79.000         270.000           -5.587e+00          -5.587e+00             316.604          -1.169e+02             268.043           4.000e+01     
  78.000         270.000           -5.388e+00          -5.388e+00             317.069          -1.169e+02             267.494           4.000e+01     
  77.000         270.000           -5.193e+00          -5.193e+00             317.508          -1.169e+02             266.941           4.000e+01     
  76.000         270.000           -5.000e+00          -5.000e+00             317.923          -1.169e+02             266.385           4.000e+01     
  75.000         270.000           -4.811e+00          -4.811e+00             318.314          -1.169e+02             265.824           4.000e+01     
  74.000         270.000           -4.625e+00          -4.625e+00             318.684          -1.169e+02             265.261           4.000e+01     
  73.000         270.000           -4.441e+00          -4.441e+00             319.033          -1.169e+02             264.694           4.000e+01     
  72.000         270.000           -4.261e+00          -4.261e+00             319.362          -1.169e+02             264.124           4.000e+01     
  71.000         270.000           -4.083e+00          -4.083e+00             319.673          -1.169e+02             263.551           4.000e+01     
  70.000         270.000           -3.908e+00          -3.908e+00             319.967          -1.169e+02             262.975           4.000e+01     
  69.000         270.000           -3.736e+00          -3.736e+00             320.244          -1.169e+02             262.397           4.000e+01     
  68.000         270.000           -3.566e+00          -3.566e+00             320.505          -1.169e+02             261.816           4.000e+01     
  67.000         270.000           -3.399e+00          -3.399e+00             320.751          -1.169e+02             261.233           4.000e+01     
  66.000         270.000           -3.235e+00          -3.235e+00             320.983          -1.169e+02             260.648           4.000e+01     
  65.000         270.000           -3.072e+00          -3.072e+00             321.202          -1.169e+02             260.061           4.000e+01     
  64.000         270.000           -2.913e+00          -2.913e+00             321.408          -1.169e+02             259.473           4.000e+01     
  63.000         270.000           -2.756e+00          -2.756e+00             321.601          -1.169e+02             258.882           4.000e+01     
  62.000         270.000           -2.601e+00          -2.601e+00             321.783          -1.169e+02             258.290           4.000e+01     
  61.000         270.000           -2.448e+00          -2.448e+00             321.955          -1.169e+02             257.697           4.000e+01     
  60.000         270.000           -2.298e+00          -2.298e+00             322.115          -1.169e+02             257.103           4.000e+01     
  59.000         270.000           -2.150e+00          -2.150e+00             322.266          -1.169e+02             256.507           4.000e+01     
  58.000         270.000           -2.004e+00          -2.004e+00             322.408          -1.169e+02             255.911           4.000e+01     
  57.000         270.000           -1.860e+00          -1.860e+00             322.541          -1.170e+02             255.313           4.000e+01     
  56.000         270.000           -1.719e+00          -1.719e+00             322.665          -1.170e+02             254.715           4.000e+01     
  55.000         270.000           -1.579e+00          -1.579e+00             322.782          -1.170e+02             254.117           4.000e+01     
  54.000         270.000           -1.442e+00          -1.442e+00             322.891          -1.170e+02             253.518           4.000e+01     
  53.000         270.000           -1.307e+00          -1.307e+00             322.993          -1.170e+02             252.918           4.000e+01     
  52.000         270.000           -1.174e+00          -1.174e+00             323.088          -1.170e+02             252.318           4.000e+01     
  51.000         270.000           -1.044e+00          -1.044e+00             323.177          -1.171e+02             251.718           4.000e+01     
  50.000         270.000           -9.148e-01          -9.148e-01             323.259          -1.171e+02             251.118           4.000e+01     
  49.000         270.000           -7.882e-01          -7.882e-01             323.336          -1.171e+02             250.517           4.000e+01     
  48.000         270.000           -6.636e-01          -6.636e-01             323.408          -1.171e+02             249.916           4.000e+01     
  47.000         270.000           -5.411e-01          -5.411e-01             323.475          -1.172e+02             249.316           4.000e+01     
  46.000         270.000           -4.206e-01          -4.206e-01             323.536          -1.172e+02             248.715           4.000e+01     
  45.000         270.000           -3.022e-01          -3.022e-01             323.594          -1.172e+02             248.113           4.000e+01     
  44.000         270.000           -1.859e-01          -1.859e-01             323.647          -1.173e+02             247.512           4.000e+01     
  43.000         270.000           -7.164e-02          -7.164e-02             323.696          -1.173e+02             246.911           4.000e+01     
  42.000         270.000            4.055e-02           4.055e-02             323.741          -1.174e+02             246.309           4.000e+01     
  41.000         270.000            1.507e-01           1.507e-01             323.783          -1.174e+02             245.708           4.000e+01     
  40.000         270.000            2.587e-01           2.587e-01             323.821          -1.174e+02             245.106           4.000e+01     
  39.000         270.000            3.647e-01           3.647e-01             323.857          -1.175e+02             244.503           4.000e+01     
  38.000         270.000            4.685e-01           4.685e-01             323.890          -1.176e+02             243.900           4.000e+01     
  37.000         270.000            5.703e-01           5.703e-01             323.920          -1.176e+02             243.297           4.000e+01     
  36.000         270.000            6.699e-01           6.699e-01             323.947          -1.177e+02             242.693           4.000e+01     
  35.000         270.000            7.674e-01           7.674e-01             323.973          -1.177e+02             242.088           4.000e+01     
  34.000         270.000            8.628e-01           8.628e-01             323.996          -1.178e+02             241.482           4.000e+01     
  33.000         270.000            9.561e-01           9.561e-01             324.018          -1.179e+02             240.875           4.000e+01     
  32.000         270.000            1.047e+00           1.047e+00             324.037          -1.179e+02             240.266           4.000e+01     
  31.000         270.000            1.136e+00           1.136e+00             324.055          -1.180e+02             239.656           4.000e+01     
  30.000         270.000            1.223e+00           1.223e+00             324.072          -1.181e+02             239.044           4.000e+01     
  29.000         270.000            1.307e+00           1.307e+00             324.087          -1.182e+02             238.430           4.000e+01     
  28.000         270.000            1.390e+00           1.390e+00             324.102          -1.183e+02             237.814           4.000e+01     
  27.000         270.000            1.470e+00           1.470e+00             324.115          -1.184e+02             237.195           4.000e+01     
  26.000         270.000            1.548e+00           1.548e+00             324.127          -1.185e+02             236.573           4.000e+01     
  25.000         270.000            1.623e+00           1.623e+00             324.138          -1.186e+02             235.947           4.000e+01     
  24.000         270.000            1.697e+00           1.697e+00             324.149          -1.187e+02             235.318           4.000e+01     
  23.000         270.000            1.768e+00           1.768e+00             324.159          -1.188e+02             234.685           4.000e+01     
  22.000         270.000            1.836e+00           1.836e+00             324.169          -1.189e+02             234.046           4.000e+01     
  21.000         270.000            1.903e+00           1.903e+00             324.178          -1.190e+02             233.403           4.000e+01     
  20.000         270.000            1.967e+00           1.967e+00             324.187          -1.192e+02             232.754           4.000e+01     
  19.000         270.000            2.029e+00           2.029e+00             324.195          -1.193e+02             232.098           4.000e+01     
  18.000         270.000            2.088e+00           2.088e+00             324.204          -1.194e+02             231.435           4.000e+01     
  17.000         270.000            2.145e+00           2.145e+00             324.212          -1.196e+02             230.765           4.000e+01     
  16.000         270.000            2.199e+00           2.199e+00             324.221          -1.197e+02             230.086           4.000e+01     
  15.000         270.000            2.252e+00           2.252e+00             324.230          -1.199e+02             229.398           4.000e+01     
  14.000         270.000            2.301e+00           2.301e+00             324.238          -1.200e+02             228.700           4.000e+01     
  13.000         270.000            2.348e+00           2.348e+00             324.247          -1.202e+02             227.991           4.000e+01     
  12.000         270.000            2.393e+00           2.393e+00             324.257          -1.203e+02             227.269           4.000e+01     
  11.000         270.000            2.436e+00           2.436e+00             324.266          -1.205e+02             226.535           4.000e+01     
  10.000         270.000            2.475e+00           2.475e+00             324.276          -1.207e+02             225.786           4.000e+01     
   9.000         270.000            2.513e+00           2.513e+00             324.287          -1.209e+02             225.021           4.000e+01     
   8.000         270.000            2.547e+00           2.547e+00             324.298          -1.211e+02             224.239           4.000e+01     
   7.000         270.000            2.579e+00           2.579e+00             324.309          -1.213e+02             223.438           4.000e+01     
   6.000         270.000            2.609e+00           2.609e+00             324.321          -1.215e+02             222.618           4.000e+01     
   5.000         270.000            2.636e+00           2.636e+00             324.334          -1.217e+02             221.775           4.000e+01     
   4.000         270.000            2.660e+00           2.660e+00             324.347          -1.219e+02             220.908           4.000e+01     
   3.000         270.000            2.682e+00           2.682e+00             324.361          -1.221e+02             220.015           4.000e+01     
   2.000         270.000            2.702e+00           2.702e+00             324.376          -1.223e+02             219.094           4.000e+01     
   1.000         270.000            2.718e+00           2.718e+00             324.391          -1.226e+02             218.143           4.000e+01     
