Theta [deg.]  Phi   [deg.]  Abs(Gain)[dBi   ]   Abs(Theta)[dBi   ]  Phase(Theta)[deg.]  Abs(Phi  )[dBi   ]  Phase(Phi  )[deg.]  Ax.Ratio[dB    ]    
------------------------------------------------------------------------------------------------------------------------------------------------------
   0.000          90.000            2.548e+00           2.548e+00             145.955          -1.272e+02              50.054           4.000e+01     
   1.000          90.000            2.549e+00           2.549e+00             145.980          -1.275e+02              50.408           4.000e+01     
   2.000          90.000            2.547e+00           2.547e+00             146.007          -1.278e+02              50.802           4.000e+01     
   3.000          90.000            2.542e+00           2.542e+00             146.037          -1.281e+02              51.239           4.000e+01     
   4.000          90.000            2.534e+00           2.534e+00             146.067          -1.284e+02              51.723           4.000e+01     
   5.000          90.000            2.524e+00           2.524e+00             146.100          -1.288e+02              52.257           4.000e+01     
   6.000          90.000            2.510e+00           2.510e+00             146.135          -1.291e+02              52.846           4.000e+01     
   7.000          90.000            2.494e+00           2.494e+00             146.172          -1.295e+02              53.495           4.000e+01     
   8.000          90.000            2.474e+00           2.474e+00             146.210          -1.299e+02              54.207           4.000e+01     
   9.000          90.000            2.452e+00           2.452e+00             146.251          -1.303e+02              54.990           4.000e+01     
  10.000          90.000            2.427e+00           2.427e+00             146.293          -1.307e+02              55.848           4.000e+01     
  11.000          90.000            2.400e+00           2.400e+00             146.338          -1.311e+02              56.790           4.000e+01     
  12.000          90.000            2.369e+00           2.369e+00             146.384          -1.315e+02              57.822           4.000e+01     
  13.000          90.000            2.335e+00           2.335e+00             146.433          -1.320e+02              58.952           4.000e+01     
  14.000          90.000            2.299e+00           2.299e+00             146.483          -1.324e+02              60.189           4.000e+01     
  15.000          90.000            2.260e+00           2.260e+00             146.536          -1.329e+02              61.542           4.000e+01     
  16.000          90.000            2.217e+00           2.217e+00             146.591          -1.334e+02              63.020           4.000e+01     
  17.000          90.000            2.172e+00           2.172e+00             146.648          -1.339e+02              64.634           4.000e+01     
  18.000          90.000            2.125e+00           2.125e+00             146.707          -1.343e+02              66.394           4.000e+01     
  19.000          90.000            2.074e+00           2.074e+00             146.768          -1.348e+02              68.307           4.000e+01     
  20.000          90.000            2.021e+00           2.021e+00             146.831          -1.353e+02              70.384           4.000e+01     
  21.000          90.000            1.965e+00           1.965e+00             146.897          -1.358e+02              72.632           4.000e+01     
  22.000          90.000            1.906e+00           1.906e+00             146.965          -1.363e+02              75.053           4.000e+01     
  23.000          90.000            1.844e+00           1.844e+00             147.035          -1.368e+02              77.651           4.000e+01     
  24.000          90.000            1.780e+00           1.780e+00             147.108          -1.373e+02              80.420           4.000e+01     
  25.000          90.000            1.713e+00           1.713e+00             147.182          -1.378e+02              83.351           4.000e+01     
  26.000          90.000            1.643e+00           1.643e+00             147.259          -1.382e+02              86.427           4.000e+01     
  27.000          90.000            1.570e+00           1.570e+00             147.339          -1.386e+02              89.626           4.000e+01     
  28.000          90.000            1.495e+00           1.495e+00             147.421          -1.390e+02              92.914           4.000e+01     
  29.000          90.000            1.417e+00           1.417e+00             147.505          -1.394e+02              96.253           4.000e+01     
  30.000          90.000            1.337e+00           1.337e+00             147.592          -1.397e+02              99.599           4.000e+01     
  31.000          90.000            1.254e+00           1.254e+00             147.682          -1.400e+02             102.904           4.000e+01     
  32.000          90.000            1.169e+00           1.169e+00             147.774          -1.403e+02             106.120           4.000e+01     
  33.000          90.000            1.080e+00           1.080e+00             147.868          -1.405e+02             109.199           4.000e+01     
  34.000          90.000            9.899e-01           9.899e-01             147.965          -1.407e+02             112.097           4.000e+01     
  35.000          90.000            8.968e-01           8.968e-01             148.065          -1.409e+02             114.777           4.000e+01     
  36.000          90.000            8.012e-01           8.012e-01             148.168          -1.411e+02             117.205           4.000e+01     
  37.000          90.000            7.032e-01           7.032e-01             148.274          -1.413e+02             119.356           4.000e+01     
  38.000          90.000            6.028e-01           6.028e-01             148.382          -1.415e+02             121.206           4.000e+01     
  39.000          90.000            5.000e-01           5.000e-01             148.493          -1.416e+02             122.738           4.000e+01     
  40.000          90.000            3.949e-01           3.949e-01             148.608          -1.418e+02             123.934           4.000e+01     
  41.000          90.000            2.874e-01           2.874e-01             148.725          -1.420e+02             124.778           4.000e+01     
  42.000          90.000            1.777e-01           1.777e-01             148.845          -1.422e+02             125.252           4.000e+01     
  43.000          90.000            6.567e-02           6.567e-02             148.969          -1.424e+02             125.334           4.000e+01     
  44.000          90.000           -4.857e-02          -4.857e-02             149.095          -1.427e+02             124.998           4.000e+01     
  45.000          90.000           -1.650e-01          -1.650e-01             149.226          -1.429e+02             124.211           4.000e+01     
  46.000          90.000           -2.836e-01          -2.836e-01             149.359          -1.432e+02             122.932           4.000e+01     
  47.000          90.000           -4.043e-01          -4.043e-01             149.496          -1.435e+02             121.116           4.000e+01     
  48.000          90.000           -5.271e-01          -5.271e-01             149.636          -1.438e+02             118.707           4.000e+01     
  49.000          90.000           -6.520e-01          -6.520e-01             149.780          -1.441e+02             115.651           4.000e+01     
  50.000          90.000           -7.789e-01          -7.789e-01             149.928          -1.444e+02             111.895           4.000e+01     
  51.000          90.000           -9.078e-01          -9.078e-01             150.079          -1.446e+02             107.400           4.000e+01     
  52.000          90.000           -1.039e+00          -1.039e+00             150.235          -1.448e+02             102.185           4.000e+01     
  53.000          90.000           -1.171e+00          -1.171e+00             150.394          -1.449e+02              96.306           4.000e+01     
  54.000          90.000           -1.306e+00          -1.306e+00             150.557          -1.449e+02              89.902           4.000e+01     
  55.000          90.000           -1.443e+00          -1.443e+00             150.725          -1.447e+02              83.185           4.000e+01     
  56.000          90.000           -1.581e+00          -1.581e+00             150.896          -1.445e+02              76.415           4.000e+01     
  57.000          90.000           -1.721e+00          -1.721e+00             151.072          -1.440e+02              69.848           4.000e+01     
  58.000          90.000           -1.863e+00          -1.863e+00             151.253          -1.435e+02              63.695           4.000e+01     
  59.000          90.000           -2.007e+00          -2.007e+00             151.438          -1.429e+02              58.088           4.000e+01     
  60.000          90.000           -2.152e+00          -2.152e+00             151.627          -1.422e+02              53.083           4.000e+01     
  61.000          90.000           -2.300e+00          -2.300e+00             151.822          -1.414e+02              48.680           4.000e+01     
  62.000          90.000           -2.448e+00          -2.448e+00             152.021          -1.407e+02              44.839           4.000e+01     
  63.000          90.000           -2.599e+00          -2.599e+00             152.225          -1.400e+02              41.503           4.000e+01     
  64.000          90.000           -2.751e+00          -2.751e+00             152.435          -1.392e+02              38.607           4.000e+01     
  65.000          90.000           -2.904e+00          -2.904e+00             152.649          -1.385e+02              36.091           4.000e+01     
  66.000          90.000           -3.059e+00          -3.059e+00             152.869          -1.378e+02              33.900           4.000e+01     
  67.000          90.000           -3.216e+00          -3.216e+00             153.095          -1.371e+02              31.984           4.000e+01     
  68.000          90.000           -3.374e+00          -3.374e+00             153.325          -1.365e+02              30.303           4.000e+01     
  69.000          90.000           -3.533e+00          -3.533e+00             153.562          -1.359e+02              28.821           4.000e+01     
  70.000          90.000           -3.694e+00          -3.694e+00             153.805          -1.353e+02              27.509           4.000e+01     
  71.000          90.000           -3.857e+00          -3.857e+00             154.053          -1.347e+02              26.342           4.000e+01     
  72.000          90.000           -4.021e+00          -4.021e+00             154.307          -1.342e+02              25.299           4.000e+01     
  73.000          90.000           -4.186e+00          -4.186e+00             154.568          -1.336e+02              24.364           4.000e+01     
  74.000          90.000           -4.353e+00          -4.353e+00             154.835          -1.331e+02              23.522           4.000e+01     
  75.000          90.000           -4.521e+00          -4.521e+00             155.108          -1.327e+02              22.761           4.000e+01     
  76.000          90.000           -4.691e+00          -4.691e+00             155.388          -1.322e+02              22.071           4.000e+01     
  77.000          90.000           -4.862e+00          -4.862e+00             155.675          -1.317e+02              21.443           4.000e+01     
  78.000          90.000           -5.034e+00          -5.034e+00             155.969          -1.313e+02              20.869           4.000e+01     
  79.000          90.000           -5.208e+00          -5.208e+00             156.269          -1.309e+02              20.344           4.000e+01     
  80.000          90.000           -5.384e+00          -5.384e+00             156.577          -1.305e+02              19.861           4.000e+01     
  81.000          90.000           -5.561e+00          -5.561e+00             156.892          -1.301e+02              19.418           4.000e+01     
  82.000          90.000           -5.739e+00          -5.739e+00             157.215          -1.297e+02              19.008           4.000e+01     
  83.000          90.000           -5.919e+00          -5.919e+00             157.545          -1.294e+02              18.630           4.000e+01     
  84.000          90.000           -6.101e+00          -6.101e+00             157.882          -1.290e+02              18.280           4.000e+01     
  85.000          90.000           -6.284e+00          -6.284e+00             158.228          -1.287e+02              17.956           4.000e+01     
  86.000          90.000           -6.469e+00          -6.469e+00             158.581          -1.284e+02              17.655           4.000e+01     
  87.000          90.000           -6.655e+00          -6.655e+00             158.943          -1.281e+02              17.375           4.000e+01     
  88.000          90.000           -6.844e+00          -6.844e+00             159.313          -1.278e+02              17.115           4.000e+01     
  89.000          90.000           -7.034e+00          -7.034e+00             159.692          -1.275e+02              16.874           4.000e+01     
  90.000          90.000           -7.226e+00          -7.226e+00             160.079          -1.272e+02              16.650           4.000e+01     
  91.000          90.000           -7.421e+00          -7.421e+00             160.476          -1.269e+02              16.441           4.000e+01     
  92.000          90.000           -7.617e+00          -7.617e+00             160.881          -1.267e+02              16.248           4.000e+01     
  93.000          90.000           -7.816e+00          -7.816e+00             161.296          -1.264e+02              16.068           4.000e+01     
  94.000          90.000           -8.017e+00          -8.017e+00             161.721          -1.262e+02              15.902           4.000e+01     
  95.000          90.000           -8.220e+00          -8.220e+00             162.155          -1.259e+02              15.748           4.000e+01     
  96.000          90.000           -8.427e+00          -8.427e+00             162.600          -1.257e+02              15.607           4.000e+01     
  97.000          90.000           -8.636e+00          -8.636e+00             163.055          -1.255e+02              15.477           4.000e+01     
  98.000          90.000           -8.847e+00          -8.847e+00             163.522          -1.253e+02              15.358           4.000e+01     
  99.000          90.000           -9.063e+00          -9.063e+00             163.999          -1.251e+02              15.250           4.000e+01     
 100.000          90.000           -9.281e+00          -9.281e+00             164.488          -1.249e+02              15.152           4.000e+01     
 101.000          90.000           -9.503e+00          -9.503e+00             164.989          -1.247e+02              15.065           4.000e+01     
 102.000          90.000           -9.728e+00          -9.728e+00             165.503          -1.245e+02              14.987           4.000e+01     
 103.000          90.000           -9.958e+00          -9.958e+00             166.030          -1.243e+02              14.919           4.000e+01     
 104.000          90.000           -1.019e+01          -1.019e+01             166.571          -1.242e+02              14.860           4.000e+01     
 105.000          90.000           -1.043e+01          -1.043e+01             167.126          -1.240e+02              14.811           4.000e+01     
 106.000          90.000           -1.067e+01          -1.067e+01             167.697          -1.239e+02              14.771           4.000e+01     
 107.000          90.000           -1.092e+01          -1.092e+01             168.284          -1.237e+02              14.740           4.000e+01     
 108.000          90.000           -1.118e+01          -1.118e+01             168.888          -1.236e+02              14.718           4.000e+01     
 109.000          90.000           -1.144e+01          -1.144e+01             169.511          -1.234e+02              14.705           4.000e+01     
 110.000          90.000           -1.170e+01          -1.170e+01             170.153          -1.233e+02              14.701           4.000e+01     
 111.000          90.000           -1.198e+01          -1.198e+01             170.817          -1.232e+02              14.706           4.000e+01     
 112.000          90.000           -1.226e+01          -1.226e+01             171.504          -1.231e+02              14.720           4.000e+01     
 113.000          90.000           -1.255e+01          -1.255e+01             172.215          -1.229e+02              14.743           4.000e+01     
 114.000          90.000           -1.285e+01          -1.285e+01             172.954          -1.228e+02              14.775           4.000e+01     
 115.000          90.000           -1.315e+01          -1.315e+01             173.722          -1.227e+02              14.816           4.000e+01     
 116.000          90.000           -1.347e+01          -1.347e+01             174.523          -1.226e+02              14.866           4.000e+01     
 117.000          90.000           -1.380e+01          -1.380e+01             175.360          -1.225e+02              14.926           4.000e+01     
 118.000          90.000           -1.414e+01          -1.414e+01             176.236          -1.225e+02              14.994           4.000e+01     
 119.000          90.000           -1.449e+01          -1.449e+01             177.157          -1.224e+02              15.072           4.000e+01     
 120.000          90.000           -1.485e+01          -1.485e+01             178.128          -1.223e+02              15.160           4.000e+01     
 121.000          90.000           -1.523e+01          -1.523e+01             179.155          -1.222e+02              15.257           4.000e+01     
 122.000          90.000           -1.563e+01          -1.563e+01             180.246          -1.222e+02              15.364           4.000e+01     
 123.000          90.000           -1.604e+01          -1.604e+01             181.410          -1.221e+02              15.481           4.000e+01     
 124.000          90.000           -1.647e+01          -1.647e+01             182.657          -1.221e+02              15.608           4.000e+01     
 125.000          90.000           -1.692e+01          -1.692e+01             184.000          -1.220e+02              15.745           4.000e+01     
 126.000          90.000           -1.740e+01          -1.740e+01             185.455          -1.220e+02              15.893           4.000e+01     
 127.000          90.000           -1.789e+01          -1.789e+01             187.041          -1.219e+02              16.052           4.000e+01     
 128.000          90.000           -1.842e+01          -1.842e+01             188.782          -1.219e+02              16.221           4.000e+01     
 129.000          90.000           -1.897e+01          -1.897e+01             190.706          -1.219e+02              16.402           4.000e+01     
 130.000          90.000           -1.955e+01          -1.955e+01             192.851          -1.219e+02              16.594           4.000e+01     
 131.000          90.000           -2.017e+01          -2.017e+01             195.260          -1.218e+02              16.798           4.000e+01     
 132.000          90.000           -2.082e+01          -2.082e+01             197.992          -1.218e+02              17.014           4.000e+01     
 133.000          90.000           -2.150e+01          -2.150e+01             201.119          -1.218e+02              17.242           4.000e+01     
 134.000          90.000           -2.222e+01          -2.222e+01             204.732          -1.218e+02              17.484           4.000e+01     
 135.000          90.000           -2.296e+01          -2.296e+01             208.943          -1.218e+02              17.738           4.000e+01     
 136.000          90.000           -2.373e+01          -2.373e+01             213.888          -1.219e+02              18.006           4.000e+01     
 137.000          90.000           -2.449e+01          -2.449e+01             219.720          -1.219e+02              18.288           4.000e+01     
 138.000          90.000           -2.523e+01          -2.523e+01             226.589          -1.219e+02              18.584           4.000e+01     
 139.000          90.000           -2.589e+01          -2.589e+01             234.600          -1.219e+02              18.895           4.000e+01     
 140.000          90.000           -2.642e+01          -2.642e+01             243.733          -1.220e+02              19.222           4.000e+01     
 141.000          90.000           -2.674e+01          -2.674e+01             253.762          -1.220e+02              19.564           4.000e+01     
 142.000          90.000           -2.680e+01          -2.680e+01             264.222          -1.220e+02              19.924           4.000e+01     
 143.000          90.000           -2.660e+01          -2.660e+01             274.508          -1.221e+02              20.300           4.000e+01     
 144.000          90.000           -2.617e+01          -2.617e+01             284.075          -1.221e+02              20.695           4.000e+01     
 145.000          90.000           -2.558e+01          -2.558e+01             292.587          -1.222e+02              21.108           4.000e+01     
 146.000          90.000           -2.488e+01          -2.488e+01             299.944          -1.223e+02              21.540           4.000e+01     
 147.000          90.000           -2.414e+01          -2.414e+01             306.207          -1.223e+02              21.993           4.000e+01     
 148.000          90.000           -2.338e+01          -2.338e+01             311.513          -1.224e+02              22.467           4.000e+01     
 149.000          90.000           -2.264e+01          -2.264e+01             316.018          -1.225e+02              22.964           4.000e+01     
 150.000          90.000           -2.193e+01          -2.193e+01             319.867          -1.226e+02              23.483           4.000e+01     
 151.000          90.000           -2.125e+01          -2.125e+01             323.182          -1.227e+02              24.027           4.000e+01     
 152.000          90.000           -2.061e+01          -2.061e+01             326.064          -1.228e+02              24.597           4.000e+01     
 153.000          90.000           -2.000e+01          -2.000e+01             328.593          -1.229e+02              25.193           4.000e+01     
 154.000          90.000           -1.943e+01          -1.943e+01             330.833          -1.230e+02              25.818           4.000e+01     
 155.000          90.000           -1.889e+01          -1.889e+01             332.833          -1.231e+02              26.472           4.000e+01     
 156.000          90.000           -1.839e+01          -1.839e+01             334.635          -1.233e+02              27.157           4.000e+01     
 157.000          90.000           -1.791e+01          -1.791e+01             336.270          -1.234e+02              27.876           4.000e+01     
 158.000          90.000           -1.746e+01          -1.746e+01             337.764          -1.235e+02              28.629           4.000e+01     
 159.000          90.000           -1.703e+01          -1.703e+01             339.139          -1.237e+02              29.418           4.000e+01     
 160.000          90.000           -1.663e+01          -1.663e+01             340.412          -1.238e+02              30.246           4.000e+01     
 161.000          90.000           -1.625e+01          -1.625e+01             341.598          -1.240e+02              31.115           4.000e+01     
 162.000          90.000           -1.590e+01          -1.590e+01             342.707          -1.241e+02              32.027           4.000e+01     
 163.000          90.000           -1.556e+01          -1.556e+01             343.751          -1.243e+02              32.985           4.000e+01     
 164.000          90.000           -1.524e+01          -1.524e+01             344.737          -1.245e+02              33.990           4.000e+01     
 165.000          90.000           -1.494e+01          -1.494e+01             345.673          -1.246e+02              35.046           4.000e+01     
 166.000          90.000           -1.465e+01          -1.465e+01             346.564          -1.248e+02              36.155           4.000e+01     
 167.000          90.000           -1.438e+01          -1.438e+01             347.417          -1.250e+02              37.321           4.000e+01     
 168.000          90.000           -1.413e+01          -1.413e+01             348.236          -1.252e+02              38.546           4.000e+01     
 169.000          90.000           -1.389e+01          -1.389e+01             349.024          -1.254e+02              39.833           4.000e+01     
 170.000          90.000           -1.367e+01          -1.367e+01             349.786          -1.256e+02              41.186           4.000e+01     
 171.000          90.000           -1.345e+01          -1.345e+01             350.524          -1.257e+02              42.608           4.000e+01     
 172.000          90.000           -1.325e+01          -1.325e+01             351.241          -1.259e+02              44.101           4.000e+01     
 173.000          90.000           -1.307e+01          -1.307e+01             351.941          -1.261e+02              45.669           4.000e+01     
 174.000          90.000           -1.289e+01          -1.289e+01             352.624          -1.263e+02              47.315           4.000e+01     
 175.000          90.000           -1.273e+01          -1.273e+01             353.293          -1.265e+02              49.040           4.000e+01     
 176.000          90.000           -1.257e+01          -1.257e+01             353.951          -1.267e+02              50.848           4.000e+01     
 177.000          90.000           -1.243e+01          -1.243e+01             354.598          -1.269e+02              52.739           4.000e+01     
 178.000          90.000           -1.230e+01          -1.230e+01             355.237          -1.271e+02              54.716           4.000e+01     
 179.000          90.000           -1.218e+01          -1.218e+01             355.869          -1.273e+02              56.777           4.000e+01     
 180.000          90.000           -1.207e+01          -1.207e+01             356.495          -1.275e+02              58.921           4.000e+01     
 179.000         270.000           -1.197e+01          -1.197e+01             177.118          -1.277e+02             241.150           4.000e+01     
 178.000         270.000           -1.188e+01          -1.188e+01             177.737          -1.278e+02             243.458           4.000e+01     
 177.000         270.000           -1.179e+01          -1.179e+01             178.356          -1.280e+02             245.842           4.000e+01     
 176.000         270.000           -1.172e+01          -1.172e+01             178.974          -1.281e+02             248.295           4.000e+01     
 175.000         270.000           -1.166e+01          -1.166e+01             179.593          -1.283e+02             250.811           4.000e+01     
 174.000         270.000           -1.160e+01          -1.160e+01             180.215          -1.284e+02             253.381           4.000e+01     
 173.000         270.000           -1.156e+01          -1.156e+01             180.840          -1.285e+02             255.995           4.000e+01     
 172.000         270.000           -1.152e+01          -1.152e+01             181.470          -1.286e+02             258.642           4.000e+01     
 171.000         270.000           -1.150e+01          -1.150e+01             182.106          -1.286e+02             261.310           4.000e+01     
 170.000         270.000           -1.148e+01          -1.148e+01             182.750          -1.287e+02             263.986           4.000e+01     
 169.000         270.000           -1.147e+01          -1.147e+01             183.403          -1.287e+02             266.657           4.000e+01     
 168.000         270.000           -1.147e+01          -1.147e+01             184.066          -1.287e+02             269.310           4.000e+01     
 167.000         270.000           -1.147e+01          -1.147e+01             184.740          -1.287e+02             271.934           4.000e+01     
 166.000         270.000           -1.149e+01          -1.149e+01             185.428          -1.287e+02             274.515           4.000e+01     
 165.000         270.000           -1.151e+01          -1.151e+01             186.131          -1.287e+02             277.044           4.000e+01     
 164.000         270.000           -1.155e+01          -1.155e+01             186.850          -1.286e+02             279.509           4.000e+01     
 163.000         270.000           -1.159e+01          -1.159e+01             187.587          -1.286e+02             281.905           4.000e+01     
 162.000         270.000           -1.164e+01          -1.164e+01             188.345          -1.285e+02             284.222           4.000e+01     
 161.000         270.000           -1.169e+01          -1.169e+01             189.125          -1.284e+02             286.457           4.000e+01     
 160.000         270.000           -1.176e+01          -1.176e+01             189.928          -1.283e+02             288.605           4.000e+01     
 159.000         270.000           -1.183e+01          -1.183e+01             190.759          -1.282e+02             290.663           4.000e+01     
 158.000         270.000           -1.192e+01          -1.192e+01             191.618          -1.281e+02             292.631           4.000e+01     
 157.000         270.000           -1.201e+01          -1.201e+01             192.509          -1.280e+02             294.506           4.000e+01     
 156.000         270.000           -1.211e+01          -1.211e+01             193.434          -1.279e+02             296.291           4.000e+01     
 155.000         270.000           -1.221e+01          -1.221e+01             194.396          -1.278e+02             297.986           4.000e+01     
 154.000         270.000           -1.233e+01          -1.233e+01             195.400          -1.277e+02             299.592           4.000e+01     
 153.000         270.000           -1.245e+01          -1.245e+01             196.447          -1.275e+02             301.112           4.000e+01     
 152.000         270.000           -1.258e+01          -1.258e+01             197.542          -1.274e+02             302.549           4.000e+01     
 151.000         270.000           -1.272e+01          -1.272e+01             198.689          -1.273e+02             303.905           4.000e+01     
 150.000         270.000           -1.287e+01          -1.287e+01             199.892          -1.272e+02             305.183           4.000e+01     
 149.000         270.000           -1.302e+01          -1.302e+01             201.156          -1.271e+02             306.386           4.000e+01     
 148.000         270.000           -1.318e+01          -1.318e+01             202.487          -1.270e+02             307.517           4.000e+01     
 147.000         270.000           -1.334e+01          -1.334e+01             203.888          -1.269e+02             308.580           4.000e+01     
 146.000         270.000           -1.352e+01          -1.352e+01             205.367          -1.268e+02             309.576           4.000e+01     
 145.000         270.000           -1.369e+01          -1.369e+01             206.928          -1.267e+02             310.509           4.000e+01     
 144.000         270.000           -1.388e+01          -1.388e+01             208.579          -1.266e+02             311.381           4.000e+01     
 143.000         270.000           -1.406e+01          -1.406e+01             210.325          -1.265e+02             312.195           4.000e+01     
 142.000         270.000           -1.425e+01          -1.425e+01             212.174          -1.264e+02             312.954           4.000e+01     
 141.000         270.000           -1.444e+01          -1.444e+01             214.131          -1.263e+02             313.659           4.000e+01     
 140.000         270.000           -1.464e+01          -1.464e+01             216.204          -1.262e+02             314.313           4.000e+01     
 139.000         270.000           -1.483e+01          -1.483e+01             218.398          -1.262e+02             314.918           4.000e+01     
 138.000         270.000           -1.501e+01          -1.501e+01             220.718          -1.261e+02             315.476           4.000e+01     
 137.000         270.000           -1.520e+01          -1.520e+01             223.170          -1.260e+02             315.987           4.000e+01     
 136.000         270.000           -1.537e+01          -1.537e+01             225.756          -1.260e+02             316.455           4.000e+01     
 135.000         270.000           -1.554e+01          -1.554e+01             228.478          -1.259e+02             316.879           4.000e+01     
 134.000         270.000           -1.569e+01          -1.569e+01             231.334          -1.259e+02             317.263           4.000e+01     
 133.000         270.000           -1.583e+01          -1.583e+01             234.320          -1.258e+02             317.605           4.000e+01     
 132.000         270.000           -1.595e+01          -1.595e+01             237.429          -1.258e+02             317.909           4.000e+01     
 131.000         270.000           -1.605e+01          -1.605e+01             240.650          -1.258e+02             318.173           4.000e+01     
 130.000         270.000           -1.613e+01          -1.613e+01             243.970          -1.257e+02             318.400           4.000e+01     
 129.000         270.000           -1.617e+01          -1.617e+01             247.369          -1.257e+02             318.589           4.000e+01     
 128.000         270.000           -1.619e+01          -1.619e+01             250.826          -1.257e+02             318.742           4.000e+01     
 127.000         270.000           -1.618e+01          -1.618e+01             254.317          -1.257e+02             318.859           4.000e+01     
 126.000         270.000           -1.614e+01          -1.614e+01             257.818          -1.257e+02             318.940           4.000e+01     
 125.000         270.000           -1.607e+01          -1.607e+01             261.301          -1.257e+02             318.985           4.000e+01     
 124.000         270.000           -1.597e+01          -1.597e+01             264.741          -1.257e+02             318.994           4.000e+01     
 123.000         270.000           -1.584e+01          -1.584e+01             268.115          -1.257e+02             318.968           4.000e+01     
 122.000         270.000           -1.568e+01          -1.568e+01             271.401          -1.257e+02             318.906           4.000e+01     
 121.000         270.000           -1.550e+01          -1.550e+01             274.581          -1.257e+02             318.809           4.000e+01     
 120.000         270.000           -1.530e+01          -1.530e+01             277.640          -1.257e+02             318.675           4.000e+01     
 119.000         270.000           -1.507e+01          -1.507e+01             280.570          -1.257e+02             318.505           4.000e+01     
 118.000         270.000           -1.483e+01          -1.483e+01             283.361          -1.258e+02             318.298           4.000e+01     
 117.000         270.000           -1.458e+01          -1.458e+01             286.011          -1.258e+02             318.054           4.000e+01     
 116.000         270.000           -1.432e+01          -1.432e+01             288.518          -1.258e+02             317.772           4.000e+01     
 115.000         270.000           -1.404e+01          -1.404e+01             290.884          -1.258e+02             317.451           4.000e+01     
 114.000         270.000           -1.376e+01          -1.376e+01             293.112          -1.259e+02             317.091           4.000e+01     
 113.000         270.000           -1.348e+01          -1.348e+01             295.206          -1.259e+02             316.691           4.000e+01     
 112.000         270.000           -1.319e+01          -1.319e+01             297.172          -1.260e+02             316.250           4.000e+01     
 111.000         270.000           -1.291e+01          -1.291e+01             299.015          -1.260e+02             315.768           4.000e+01     
 110.000         270.000           -1.262e+01          -1.262e+01             300.742          -1.261e+02             315.242           4.000e+01     
 109.000         270.000           -1.233e+01          -1.233e+01             302.361          -1.261e+02             314.673           4.000e+01     
 108.000         270.000           -1.205e+01          -1.205e+01             303.876          -1.262e+02             314.060           4.000e+01     
 107.000         270.000           -1.176e+01          -1.176e+01             305.295          -1.262e+02             313.400           4.000e+01     
 106.000         270.000           -1.148e+01          -1.148e+01             306.625          -1.263e+02             312.694           4.000e+01     
 105.000         270.000           -1.120e+01          -1.120e+01             307.870          -1.264e+02             311.940           4.000e+01     
 104.000         270.000           -1.093e+01          -1.093e+01             309.036          -1.264e+02             311.138           4.000e+01     
 103.000         270.000           -1.066e+01          -1.066e+01             310.129          -1.265e+02             310.286           4.000e+01     
 102.000         270.000           -1.039e+01          -1.039e+01             311.154          -1.266e+02             309.383           4.000e+01     
 101.000         270.000           -1.013e+01          -1.013e+01             312.115          -1.266e+02             308.429           4.000e+01     
 100.000         270.000           -9.873e+00          -9.873e+00             313.016          -1.267e+02             307.423           4.000e+01     
  99.000         270.000           -9.619e+00          -9.619e+00             313.862          -1.267e+02             306.365           4.000e+01     
  98.000         270.000           -9.369e+00          -9.369e+00             314.656          -1.268e+02             305.254           4.000e+01     
  97.000         270.000           -9.124e+00          -9.124e+00             315.402          -1.269e+02             304.090           4.000e+01     
  96.000         270.000           -8.882e+00          -8.882e+00             316.102          -1.269e+02             302.874           4.000e+01     
  95.000         270.000           -8.645e+00          -8.645e+00             316.760          -1.270e+02             301.605           4.000e+01     
  94.000         270.000           -8.411e+00          -8.411e+00             317.378          -1.270e+02             300.286           4.000e+01     
  93.000         270.000           -8.181e+00          -8.181e+00             317.959          -1.271e+02             298.915           4.000e+01     
  92.000         270.000           -7.955e+00          -7.955e+00             318.506          -1.271e+02             297.497           4.000e+01     
  91.000         270.000           -7.733e+00          -7.733e+00             319.019          -1.272e+02             296.031           4.000e+01     
  90.000         270.000           -7.514e+00          -7.514e+00             319.502          -1.272e+02             294.520           4.000e+01     
  89.000         270.000           -7.299e+00          -7.299e+00             319.956          -1.272e+02             292.968           4.000e+01     
  88.000         270.000           -7.087e+00          -7.087e+00             320.383          -1.272e+02             291.378           4.000e+01     
  87.000         270.000           -6.878e+00          -6.878e+00             320.784          -1.272e+02             289.752           4.000e+01     
  86.000         270.000           -6.672e+00          -6.672e+00             321.161          -1.272e+02             288.095           4.000e+01     
  85.000         270.000           -6.470e+00          -6.470e+00             321.515          -1.272e+02             286.411           4.000e+01     
  84.000         270.000           -6.271e+00          -6.271e+00             321.848          -1.272e+02             284.705           4.000e+01     
  83.000         270.000           -6.074e+00          -6.074e+00             322.160          -1.272e+02             282.982           4.000e+01     
  82.000         270.000           -5.880e+00          -5.880e+00             322.454          -1.272e+02             281.247           4.000e+01     
  81.000         270.000           -5.689e+00          -5.689e+00             322.729          -1.271e+02             279.505           4.000e+01     
  80.000         270.000           -5.501e+00          -5.501e+00             322.987          -1.271e+02             277.762           4.000e+01     
  79.000         270.000           -5.315e+00          -5.315e+00             323.229          -1.270e+02             276.022           4.000e+01     
  78.000         270.000           -5.132e+00          -5.132e+00             323.455          -1.270e+02             274.291           4.000e+01     
  77.000         270.000           -4.951e+00          -4.951e+00             323.667          -1.269e+02             272.573           4.000e+01     
  76.000         270.000           -4.773e+00          -4.773e+00             323.866          -1.268e+02             270.874           4.000e+01     
  75.000         270.000           -4.596e+00          -4.596e+00             324.051          -1.267e+02             269.197           4.000e+01     
  74.000         270.000           -4.423e+00          -4.423e+00             324.224          -1.266e+02             267.547           4.000e+01     
  73.000         270.000           -4.251e+00          -4.251e+00             324.385          -1.265e+02             265.928           4.000e+01     
  72.000         270.000           -4.082e+00          -4.082e+00             324.535          -1.264e+02             264.341           4.000e+01     
  71.000         270.000           -3.914e+00          -3.914e+00             324.674          -1.263e+02             262.791           4.000e+01     
  70.000         270.000           -3.749e+00          -3.749e+00             324.804          -1.262e+02             261.279           4.000e+01     
  69.000         270.000           -3.586e+00          -3.586e+00             324.924          -1.261e+02             259.808           4.000e+01     
  68.000         270.000           -3.425e+00          -3.425e+00             325.035          -1.260e+02             258.378           4.000e+01     
  67.000         270.000           -3.266e+00          -3.266e+00             325.137          -1.258e+02             256.991           4.000e+01     
  66.000         270.000           -3.109e+00          -3.109e+00             325.232          -1.257e+02             255.647           4.000e+01     
  65.000         270.000           -2.954e+00          -2.954e+00             325.319          -1.256e+02             254.348           4.000e+01     
  64.000         270.000           -2.800e+00          -2.800e+00             325.399          -1.254e+02             253.093           4.000e+01     
  63.000         270.000           -2.649e+00          -2.649e+00             325.472          -1.253e+02             251.882           4.000e+01     
  62.000         270.000           -2.500e+00          -2.500e+00             325.538          -1.252e+02             250.714           4.000e+01     
  61.000         270.000           -2.352e+00          -2.352e+00             325.598          -1.250e+02             249.589           4.000e+01     
  60.000         270.000           -2.207e+00          -2.207e+00             325.653          -1.249e+02             248.507           4.000e+01     
  59.000         270.000           -2.063e+00          -2.063e+00             325.702          -1.248e+02             247.466           4.000e+01     
  58.000         270.000           -1.921e+00          -1.921e+00             325.746          -1.247e+02             246.466           4.000e+01     
  57.000         270.000           -1.781e+00          -1.781e+00             325.786          -1.245e+02             245.505           4.000e+01     
  56.000         270.000           -1.643e+00          -1.643e+00             325.821          -1.244e+02             244.583           4.000e+01     
  55.000         270.000           -1.507e+00          -1.507e+00             325.851          -1.243e+02             243.698           4.000e+01     
  54.000         270.000           -1.373e+00          -1.373e+00             325.878          -1.242e+02             242.848           4.000e+01     
  53.000         270.000           -1.241e+00          -1.241e+00             325.901          -1.241e+02             242.034           4.000e+01     
  52.000         270.000           -1.111e+00          -1.111e+00             325.920          -1.239e+02             241.253           4.000e+01     
  51.000         270.000           -9.822e-01          -9.822e-01             325.936          -1.238e+02             240.504           4.000e+01     
  50.000         270.000           -8.557e-01          -8.557e-01             325.949          -1.237e+02             239.787           4.000e+01     
  49.000         270.000           -7.312e-01          -7.312e-01             325.960          -1.236e+02             239.100           4.000e+01     
  48.000         270.000           -6.087e-01          -6.087e-01             325.968          -1.236e+02             238.442           4.000e+01     
  47.000         270.000           -4.881e-01          -4.881e-01             325.973          -1.235e+02             237.811           4.000e+01     
  46.000         270.000           -3.696e-01          -3.696e-01             325.976          -1.234e+02             237.208           4.000e+01     
  45.000         270.000           -2.530e-01          -2.530e-01             325.977          -1.233e+02             236.630           4.000e+01     
  44.000         270.000           -1.385e-01          -1.385e-01             325.977          -1.232e+02             236.077           4.000e+01     
  43.000         270.000           -2.610e-02          -2.610e-02             325.975          -1.232e+02             235.548           4.000e+01     
  42.000         270.000            8.426e-02           8.426e-02             325.971          -1.231e+02             235.042           4.000e+01     
  41.000         270.000            1.925e-01           1.925e-01             325.966          -1.231e+02             234.559           4.000e+01     
  40.000         270.000            2.986e-01           2.986e-01             325.959          -1.230e+02             234.096           4.000e+01     
  39.000         270.000            4.026e-01           4.026e-01             325.952          -1.230e+02             233.655           4.000e+01     
  38.000         270.000            5.045e-01           5.045e-01             325.944          -1.229e+02             233.234           4.000e+01     
  37.000         270.000            6.041e-01           6.041e-01             325.935          -1.229e+02             232.832           4.000e+01     
  36.000         270.000            7.015e-01           7.015e-01             325.926          -1.229e+02             232.449           4.000e+01     
  35.000         270.000            7.967e-01           7.967e-01             325.916          -1.229e+02             232.084           4.000e+01     
  34.000         270.000            8.896e-01           8.896e-01             325.905          -1.229e+02             231.737           4.000e+01     
  33.000         270.000            9.802e-01           9.802e-01             325.895          -1.229e+02             231.408           4.000e+01     
  32.000         270.000            1.069e+00           1.069e+00             325.884          -1.229e+02             231.095           4.000e+01     
  31.000         270.000            1.155e+00           1.155e+00             325.873          -1.229e+02             230.799           4.000e+01     
  30.000         270.000            1.238e+00           1.238e+00             325.863          -1.229e+02             230.519           4.000e+01     
  29.000         270.000            1.319e+00           1.319e+00             325.852          -1.229e+02             230.255           4.000e+01     
  28.000         270.000            1.398e+00           1.398e+00             325.842          -1.229e+02             230.007           4.000e+01     
  27.000         270.000            1.475e+00           1.475e+00             325.832          -1.230e+02             229.774           4.000e+01     
  26.000         270.000            1.549e+00           1.549e+00             325.823          -1.230e+02             229.557           4.000e+01     
  25.000         270.000            1.620e+00           1.620e+00             325.814          -1.231e+02             229.355           4.000e+01     
  24.000         270.000            1.689e+00           1.689e+00             325.806          -1.231e+02             229.168           4.000e+01     
  23.000         270.000            1.756e+00           1.756e+00             325.798          -1.232e+02             228.996           4.000e+01     
  22.000         270.000            1.820e+00           1.820e+00             325.792          -1.233e+02             228.840           4.000e+01     
  21.000         270.000            1.881e+00           1.881e+00             325.786          -1.234e+02             228.698           4.000e+01     
  20.000         270.000            1.940e+00           1.940e+00             325.781          -1.235e+02             228.572           4.000e+01     
  19.000         270.000            1.996e+00           1.996e+00             325.777          -1.236e+02             228.462           4.000e+01     
  18.000         270.000            2.050e+00           2.050e+00             325.774          -1.237e+02             228.368           4.000e+01     
  17.000         270.000            2.101e+00           2.101e+00             325.772          -1.238e+02             228.289           4.000e+01     
  16.000         270.000            2.149e+00           2.149e+00             325.772          -1.239e+02             228.227           4.000e+01     
  15.000         270.000            2.195e+00           2.195e+00             325.772          -1.240e+02             228.182           4.000e+01     
  14.000         270.000            2.238e+00           2.238e+00             325.774          -1.242e+02             228.154           4.000e+01     
  13.000         270.000            2.278e+00           2.278e+00             325.777          -1.243e+02             228.144           4.000e+01     
  12.000         270.000            2.315e+00           2.315e+00             325.782          -1.245e+02             228.153           4.000e+01     
  11.000         270.000            2.350e+00           2.350e+00             325.787          -1.247e+02             228.180           4.000e+01     
  10.000         270.000            2.382e+00           2.382e+00             325.795          -1.248e+02             228.228           4.000e+01     
   9.000         270.000            2.411e+00           2.411e+00             325.803          -1.250e+02             228.296           4.000e+01     
   8.000         270.000            2.438e+00           2.438e+00             325.814          -1.252e+02             228.386           4.000e+01     
   7.000         270.000            2.461e+00           2.461e+00             325.826          -1.254e+02             228.499           4.000e+01     
   6.000         270.000            2.482e+00           2.482e+00             325.839          -1.257e+02             228.637           4.000e+01     
   5.000         270.000            2.500e+00           2.500e+00             325.854          -1.259e+02             228.799           4.000e+01     
   4.000         270.000            2.515e+00           2.515e+00             325.871          -1.261e+02             228.989           4.000e+01     
   3.000         270.000            2.528e+00           2.528e+00             325.889          -1.264e+02             229.207           4.000e+01     
   2.000         270.000            2.537e+00           2.537e+00             325.909          -1.266e+02             229.456           4.000e+01     
   1.000         270.000            2.544e+00           2.544e+00             325.931          -1.269e+02             229.738           4.000e+01     
